%OpenBCI Raw EEG Data
%
%Sample Rate = 250.0 Hz
%First Column = SampleIndex
%Other Columns = EEG data in microvolts followed by Accel Data (in G) interleaved with Aux Data
0, -21779.07, -1030.46, -20584.44, -187500.02, -187500.02, -187500.02, -187500.02, -187500.02, 0.04, -0.08, 0.50
1, -24699.35, -3292.41, -23000.75, -187500.02, -187500.02, -187500.02, -187500.02, -187500.02, 0.00, 0.00, 0.00
2, -25015.76, -4097.54, -23666.47, -187500.02, -187500.02, -187500.02, -187500.02, -187500.02, 0.03, -0.08, 0.50
3, -22572.31, -2318.26, -21730.16, -187500.02, -187500.02, -187500.02, -187500.02, -187500.02, 0.00, 0.00, 0.00
4, -21487.49, -919.24, -20429.56, -187500.02, -187500.02, -187500.02, -187500.02, -187500.02, 0.00, 0.00, 0.00
5, -24233.94, -2849.00, -22561.89, -187500.02, -187500.02, -187500.02, -187500.02, -187500.02, 0.00, 0.00, 0.00
6, -25242.81, -4192.43, -23802.84, -187500.02, -187500.02, -187500.02, -187500.02, -187500.02, 0.00, 0.00, 0.00
7, -23070.33, -2734.27, -22165.35, -187500.02, -187500.02, -187500.02, -187500.02, -187500.02, 0.04, -0.09, 0.50
8, -21358.79, -944.32, -20414.74, -187500.02, -187500.02, -187500.02, -187500.02, -187500.02, 0.00, 0.00, 0.00
9, -23684.33, -2373.78, -22068.70, -187500.02, -187500.02, -187500.02, -187500.02, -187500.02, 0.00, 0.00, 0.00
10, -25369.86, -4208.63, -23844.15, -187500.02, -187500.02, -187500.02, -187500.02, -187500.02, 0.00, 0.00, 0.00
11, -23581.16, -3140.78, -22594.53, -187500.02, -187500.02, -187500.02, -187500.02, -187500.02, 0.00, 0.00, 0.00
12, -21382.91, -1096.06, -20523.62, -187500.02, -187500.02, -187500.02, -187500.02, -187500.02, 0.03, -0.08, 0.51
13, -23092.97, -1912.12, -21569.37, -187500.02, -187500.02, -187500.02, -187500.02, -187500.02, 0.00, 0.00, 0.00
14, -25347.19, -4083.64, -23742.94, -187500.02, -187500.02, -187500.02, -187500.02, -187500.02, 0.00, 0.00, 0.00
15, -24065.65, -3497.69, -22979.09, -187500.02, -187500.02, -187500.02, -187500.02, -187500.02, 0.00, 0.00, 0.00
16, -21576.67, -1355.95, -20766.27, -187500.02, -187500.02, -187500.02, -187500.02, -187500.02, 0.00, 0.00, 0.00
17, -22519.07, -1490.21, -21112.76, -187500.02, -187500.02, -187500.02, -187500.02, -187500.02, 0.04, -0.07, 0.50
18, -25200.83, -3852.39, -23539.09, -187500.02, -187500.02, -187500.02, -187500.02, -187500.02, 0.00, 0.00, 0.00
19, -24493.91, -3787.55, -23300.33, -187500.02, -187500.02, -187500.02, -187500.02, -187500.02, 0.00, 0.00, 0.00
20, -21895.92, -1698.37, -21093.41, -187500.02, -187500.02, -187500.02, -187500.02, -187500.02, 0.00, 0.00, 0.00
21, -22025.56, -1176.15, -20749.59, -187500.02, -187500.02, -187500.02, -187500.02, -187500.02, 0.00, 0.00, 0.00
22, -24921.28, -3525.18, -23227.80, -187500.02, -187500.02, -187500.02, -187500.02, -187500.02, 0.00, 0.00, 0.00
23, -24854.92, -4008.94, -23556.86, -187500.02, -187500.02, -187500.02, -187500.02, -187500.02, 0.04, -0.07, 0.50
24, -22301.79, -2080.79, -21476.76, -187500.02, -187500.02, -187500.02, -187500.02, -187500.02, 0.00, 0.00, 0.00
25, -21625.92, -956.10, -20484.77, -187500.02, -187500.02, -187500.02, -187500.02, -187500.02, 0.00, 0.00, 0.00
26, -24511.35, -3107.27, -22816.68, -187500.02, -187500.02, -187500.02, -187500.02, -187500.02, 0.00, 0.00, 0.00
27, -25148.64, -4177.07, -23756.28, -187500.02, -187500.02, -187500.02, -187500.02, -187500.02, 0.00, 0.00, 0.00
28, -22802.60, -2515.47, -21927.91, -187500.02, -187500.02, -187500.02, -187500.02, -187500.02, 0.04, -0.07, 0.50
29, -21414.91, -920.49, -20403.41, -187500.02, -187500.02, -187500.02, -187500.02, -187500.02, 0.00, 0.00, 0.00
30, -23996.47, -2644.77, -22341.95, -187500.02, -187500.02, -187500.02, -187500.02, -187500.02, 0.00, 0.00, 0.00
31, -25316.39, -4216.79, -23829.80, -187500.02, -187500.02, -187500.02, -187500.02, -187500.02, 0.00, 0.00, 0.00
32, -23320.22, -2930.67, -22363.63, -187500.02, -187500.02, -187500.02, -187500.02, -187500.02, 0.00, 0.00, 0.00
33, -21360.35, -1007.66, -20448.40, -187500.02, -187500.02, -187500.02, -187500.02, -187500.02, 0.03, -0.08, 0.50
34, -23402.05, -2155.22, -21826.92, -187500.02, -187500.02, -187500.02, -187500.02, -187500.02, 0.00, 0.00, 0.00
35, -25379.33, -4169.96, -23812.50, -187500.02, -187500.02, -187500.02, -187500.02, -187500.02, 0.00, 0.00, 0.00
36, -23805.79, -3309.11, -22764.71, -187500.02, -187500.02, -187500.02, -187500.02, -187500.02, 0.00, 0.00, 0.00
37, -21452.94, -1198.10, -20606.45, -187500.02, -187500.02, -187500.02, -187500.02, -187500.02, 0.00, 0.00, 0.00
38, -22831.30, -1718.16, -21354.01, -187500.02, -187500.02, -187500.02, -187500.02, -187500.02, 0.04, -0.08, 0.50
39, -25321.24, -4011.15, -23683.88, -187500.02, -187500.02, -187500.02, -187500.02, -187500.02, 0.00, 0.00, 0.00
40, -24273.12, -3639.47, -23128.82, -187500.02, -187500.02, -187500.02, -187500.02, -187500.02, 0.00, 0.00, 0.00
41, -21700.84, -1496.25, -20887.35, -187500.02, -187500.02, -187500.02, -187500.02, -187500.02, 0.00, 0.00, 0.00
42, -22288.58, -1346.16, -20936.48, -187500.02, -187500.02, -187500.02, -187500.02, -187500.02, 0.00, 0.00, 0.00
43, -25105.75, -3744.81, -23428.00, -187500.02, -187500.02, -187500.02, -187500.02, -187500.02, 0.01, -0.06, 0.00
44, -24675.81, -3913.48, -23432.92, -187500.02, -187500.02, -187500.02, -187500.02, -187500.02, 0.00, 0.00, 0.00
45, -22062.33, -1862.24, -21246.38, -187500.02, -187500.02, -187500.02, -187500.02, -187500.02, 0.00, 0.00, 0.00
46, -21834.79, -1074.83, -20619.97, -187500.02, -187500.02, -187500.02, -187500.02, -187500.02, 0.00, 0.00, 0.00
47, -24766.87, -3375.47, -23074.80, -187500.02, -187500.02, -187500.02, -187500.02, -187500.02, 0.00, 0.00, 0.00
48, -24999.87, -4105.14, -23659.12, -187500.02, -187500.02, -187500.02, -187500.02, -187500.02, 0.00, 0.00, 0.00
49, -22515.02, -2271.72, -21666.08, -187500.02, -187500.02, -187500.02, -187500.02, -187500.02, 0.01, -0.06, 0.03
50, -21514.27, -930.79, -20432.38, -187500.02, -187500.02, -187500.02, -187500.02, -187500.02, 0.00, 0.00, 0.00
51, -24308.77, -2932.59, -22630.83, -187500.02, -187500.02, -187500.02, -187500.02, -187500.02, 0.00, 0.00, 0.00
52, -25254.41, -4228.99, -23818.00, -187500.02, -187500.02, -187500.02, -187500.02, -187500.02, 0.00, 0.00, 0.00
53, -23020.53, -2693.88, -22107.37, -187500.02, -187500.02, -187500.02, -187500.02, -187500.02, 0.00, 0.00, 0.00
54, -21339.54, -921.09, -20372.52, -187500.02, -187500.02, -187500.02, -187500.02, -187500.02, 0.03, -0.08, 0.00
55, -23747.48, -2443.56, -22124.11, -187500.02, -187500.02, -187500.02, -187500.02, -187500.02, 0.00, 0.00, 0.00
56, -25372.54, -4230.67, -23851.10, -187500.02, -187500.02, -187500.02, -187500.02, -187500.02, 0.00, 0.00, 0.00
57, -23515.20, -3089.39, -22524.84, -187500.02, -187500.02, -187500.02, -187500.02, -187500.02, 0.00, 0.00, 0.00
58, -21349.49, -1051.92, -20471.45, -187500.02, -187500.02, -187500.02, -187500.02, -187500.02, 0.00, 0.00, 0.00
59, -23171.43, -1982.47, -21635.77, -187500.02, -187500.02, -187500.02, -187500.02, -187500.02, 0.04, -0.08, 0.50
60, -25392.36, -4146.09, -23796.61, -187500.02, -187500.02, -187500.02, -187500.02, -187500.02, 0.00, 0.00, 0.00
61, -24014.24, -3460.43, -22930.56, -187500.02, -187500.02, -187500.02, -187500.02, -187500.02, 0.00, 0.00, 0.00
62, -21527.52, -1304.65, -20702.12, -187500.02, -187500.02, -187500.02, -187500.02, -187500.02, 0.00, 0.00, 0.00
63, -22593.72, -1558.41, -21172.73, -187500.02, -187500.02, -187500.02, -187500.02, -187500.02, 0.00, 0.00, 0.00
64, -25265.94, -3937.24, -23614.88, -187500.02, -187500.02, -187500.02, -187500.02, -187500.02, 0.03, -0.08, 0.50
65, -24467.72, -3789.20, -23288.06, -187500.02, -187500.02, -187500.02, -187500.02, -187500.02, 0.00, 0.00, 0.00
66, -21836.45, -1642.88, -21030.13, -187500.02, -187500.02, -187500.02, -187500.02, -187500.02, 0.00, 0.00, 0.00
67, -22070.60, -1200.20, -20776.68, -187500.02, -187500.02, -187500.02, -187500.02, -187500.02, 0.00, 0.00, 0.00
68, -24984.80, -3598.56, -23296.31, -187500.02, -187500.02, -187500.02, -187500.02, -187500.02, 0.00, 0.00, 0.00
69, -24825.68, -3997.99, -23540.25, -187500.02, -187500.02, -187500.02, -187500.02, -187500.02, 0.04, -0.08, 0.50
70, -22227.56, -2012.15, -21404.74, -187500.02, -187500.02, -187500.02, -187500.02, -187500.02, 0.00, 0.00, 0.00
71, -21648.60, -960.77, -20492.30, -187500.02, -187500.02, -187500.02, -187500.02, -187500.02, 0.00, 0.00, 0.00
72, -24575.38, -3180.07, -22883.89, -187500.02, -187500.02, -187500.02, -187500.02, -187500.02, 0.00, 0.00, 0.00
73, -25126.15, -4170.17, -23742.65, -187500.02, -187500.02, -187500.02, -187500.02, -187500.02, 0.00, 0.00, 0.00
74, -22714.87, -2442.62, -21842.73, -187500.02, -187500.02, -187500.02, -187500.02, -187500.02, 0.00, 0.00, 0.00
75, -21406.67, -902.36, -20378.20, -187500.02, -187500.02, -187500.02, -187500.02, -187500.02, 0.04, -0.09, 0.50
76, -24085.55, -2739.36, -22429.10, -187500.02, -187500.02, -187500.02, -187500.02, -187500.02, 0.00, 0.00, 0.00
77, -25332.06, -4256.53, -23859.90, -187500.02, -187500.02, -187500.02, -187500.02, -187500.02, 0.00, 0.00, 0.00
78, -23228.49, -2864.85, -22284.60, -187500.02, -187500.02, -187500.02, -187500.02, -187500.02, 0.00, 0.00, 0.00
79, -21313.77, -955.96, -20389.80, -187500.02, -187500.02, -187500.02, -187500.02, -187500.02, 0.00, 0.00, 0.00
80, -23495.37, -2237.23, -21905.92, -187500.02, -187500.02, -187500.02, -187500.02, -187500.02, 0.04, -0.08, 0.49
81, -25398.15, -4206.08, -23840.50, -187500.02, -187500.02, -187500.02, -187500.02, -187500.02, 0.00, 0.00, 0.00
82, -23734.71, -3265.63, -22707.05, -187500.02, -187500.02, -187500.02, -187500.02, -187500.02, 0.00, 0.00, 0.00
83, -21399.89, -1149.53, -20552.14, -187500.02, -187500.02, -187500.02, -187500.02, -187500.02, 0.00, 0.00, 0.00
84, -22906.76, -1784.25, -21419.97, -187500.02, -187500.02, -187500.02, -187500.02, -187500.02, 0.00, 0.00, 0.00
85, -25363.66, -4083.15, -23740.26, -187500.02, -187500.02, -187500.02, -187500.02, -187500.02, 0.04, -0.08, 0.50
86, -24229.45, -3629.12, -23103.88, -187500.02, -187500.02, -187500.02, -187500.02, -187500.02, 0.00, 0.00, 0.00
87, -21650.30, -1448.91, -20836.16, -187500.02, -187500.02, -187500.02, -187500.02, -187500.02, 0.00, 0.00, 0.00
88, -22352.12, -1388.27, -20982.72, -187500.02, -187500.02, -187500.02, -187500.02, -187500.02, 0.00, 0.00, 0.00
89, -25158.25, -3810.10, -23485.40, -187500.02, -187500.02, -187500.02, -187500.02, -187500.02, 0.00, 0.00, 0.00
90, -24633.95, -3901.99, -23404.85, -187500.02, -187500.02, -187500.02, -187500.02, -187500.02, 0.03, -0.08, 0.50
91, -21989.80, -1806.71, -21177.99, -187500.02, -187500.02, -187500.02, -187500.02, -187500.02, 0.00, 0.00, 0.00
92, -21862.60, -1089.22, -20629.03, -187500.02, -187500.02, -187500.02, -187500.02, -187500.02, 0.00, 0.00, 0.00
93, -24823.04, -3438.84, -23128.33, -187500.02, -187500.02, -187500.02, -187500.02, -187500.02, 0.00, 0.00, 0.00
94, -24974.77, -4105.32, -23643.74, -187500.02, -187500.02, -187500.02, -187500.02, -187500.02, 0.00, 0.00, 0.00
95, -22450.79, -2222.50, -21605.58, -187500.02, -187500.02, -187500.02, -187500.02, -187500.02, 0.03, -0.07, 0.50
96, -21534.94, -940.02, -20434.77, -187500.02, -187500.02, -187500.02, -187500.02, -187500.02, 0.00, 0.00, 0.00
97, -24376.28, -3002.35, -22694.08, -187500.02, -187500.02, -187500.02, -187500.02, -187500.02, 0.00, 0.00, 0.00
98, -25232.66, -4230.20, -23809.05, -187500.02, -187500.02, -187500.02, -187500.02, -187500.02, 0.00, 0.00, 0.00
99, -22950.41, -2643.99, -22046.87, -187500.02, -187500.02, -187500.02, -187500.02, -187500.02, 0.00, 0.00, 0.00
100, -21353.89, -914.99, -20370.11, -187500.02, -187500.02, -187500.02, -187500.02, -187500.02, 0.00, 0.00, 0.00
101, -23835.72, -2518.95, -22201.67, -187500.02, -187500.02, -187500.02, -187500.02, -187500.02, 0.04, -0.07, 0.51
102, -25382.15, -4257.72, -23871.13, -187500.02, -187500.02, -187500.02, -187500.02, -187500.02, 0.00, 0.00, 0.00
103, -23462.22, -3052.91, -22479.93, -187500.02, -187500.02, -187500.02, -187500.02, -187500.02, 0.00, 0.00, 0.00
104, -21327.90, -1022.95, -20439.37, -187500.02, -187500.02, -187500.02, -187500.02, -187500.02, 0.00, 0.00, 0.00
105, -23229.59, -2031.93, -21688.43, -187500.02, -187500.02, -187500.02, -187500.02, -187500.02, 0.00, 0.00, 0.00
106, -25386.62, -4161.49, -23810.35, -187500.02, -187500.02, -187500.02, -187500.02, -187500.02, 0.04, -0.09, 0.50
107, -23948.31, -3439.49, -22889.62, -187500.02, -187500.02, -187500.02, -187500.02, -187500.02, 0.00, 0.00, 0.00
108, -21484.05, -1284.73, -20664.59, -187500.02, -187500.02, -187500.02, -187500.02, -187500.02, 0.00, 0.00, 0.00
109, -22627.56, -1602.17, -21209.37, -187500.02, -187500.02, -187500.02, -187500.02, -187500.02, 0.00, 0.00, 0.00
110, -25257.85, -3972.44, -23631.89, -187500.02, -187500.02, -187500.02, -187500.02, -187500.02, 0.00, 0.00, 0.00
111, -24387.36, -3759.59, -23233.36, -187500.02, -187500.02, -187500.02, -187500.02, -187500.02, 0.05, -0.08, 0.00
112, -21754.44, -1597.52, -20959.07, -187500.02, -187500.02, -187500.02, -187500.02, -187500.02, 0.00, 0.00, 0.00
113, -22099.21, -1251.05, -20808.89, -187500.02, -187500.02, -187500.02, -187500.02, -187500.02, 0.00, 0.00, 0.00
114, -25007.64, -3673.15, -23347.13, -187500.02, -187500.02, -187500.02, -187500.02, -187500.02, 0.00, 0.00, 0.00
115, -24769.31, -4008.41, -23514.21, -187500.02, -187500.02, -187500.02, -187500.02, -187500.02, 0.00, 0.00, 0.00
116, -22155.92, -1994.38, -21347.26, -187500.02, -187500.02, -187500.02, -187500.02, -187500.02, 0.04, -0.07, 0.51
117, -21675.56, -1014.08, -20518.77, -187500.02, -187500.02, -187500.02, -187500.02, -187500.02, 0.00, 0.00, 0.00
118, -24614.79, -3259.49, -22944.76, -187500.02, -187500.02, -187500.02, -187500.02, -187500.02, 0.00, 0.00, 0.00
119, -25068.13, -4166.34, -23715.45, -187500.02, -187500.02, -187500.02, -187500.02, -187500.02, 0.00, 0.00, 0.00
120, -22633.96, -2404.35, -21778.38, -187500.02, -187500.02, -187500.02, -187500.02, -187500.02, 0.00, 0.00, 0.00
121, -21406.49, -913.05, -20373.79, -187500.02, -187500.02, -187500.02, -187500.02, -187500.02, 0.03, -0.08, 0.50
122, -24127.95, -2799.29, -22482.28, -187500.02, -187500.02, -187500.02, -187500.02, -187500.02, 0.00, 0.00, 0.00
123, -25284.52, -4251.06, -23835.45, -187500.02, -187500.02, -187500.02, -187500.02, -187500.02, 0.00, 0.00, 0.00
124, -23139.17, -2818.71, -22211.06, -187500.02, -187500.02, -187500.02, -187500.02, -187500.02, 0.00, 0.00, 0.00
125, -21291.40, -943.65, -20359.35, -187500.02, -187500.02, -187500.02, -187500.02, -187500.02, 0.00, 0.00, 0.00
126, -23556.39, -2309.14, -21972.28, -187500.02, -187500.02, -187500.02, -187500.02, -187500.02, 0.00, 0.00, 0.00
127, -25390.73, -4234.58, -23856.84, -187500.02, -187500.02, -187500.02, -187500.02, -187500.02, 0.04, -0.07, 0.50
128, -23666.81, -3231.37, -22653.63, -187500.02, -187500.02, -187500.02, -187500.02, -187500.02, 0.00, 0.00, 0.00
129, -21371.11, -1130.75, -20512.51, -187500.02, -187500.02, -187500.02, -187500.02, -187500.02, 0.00, 0.00, 0.00
130, -22953.94, -1833.49, -21461.70, -187500.02, -187500.02, -187500.02, -187500.02, -187500.02, 0.00, 0.00, 0.00
131, -25345.51, -4090.35, -23740.37, -187500.02, -187500.02, -187500.02, -187500.02, -187500.02, 0.00, 0.00, 0.00
132, -24138.45, -3573.64, -23027.15, -187500.02, -187500.02, -187500.02, -187500.02, -187500.02, 0.04, -0.07, 0.50
133, -21581.19, -1402.48, -20764.01, -187500.02, -187500.02, -187500.02, -187500.02, -187500.02, 0.00, 0.00, 0.00
134, -22391.08, -1426.40, -21016.25, -187500.02, -187500.02, -187500.02, -187500.02, -187500.02, 0.00, 0.00, 0.00
135, -25175.91, -3846.69, -23521.77, -187500.02, -187500.02, -187500.02, -187500.02, -187500.02, 0.00, 0.00, 0.00
136, -24560.43, -3859.52, -23349.30, -187500.02, -187500.02, -187500.02, -187500.02, -187500.02, 0.00, 0.00, 0.00
137, -21920.00, -1751.30, -21107.56, -187500.02, -187500.02, -187500.02, -187500.02, -187500.02, 0.04, -0.07, 0.50
138, -21902.96, -1119.67, -20659.36, -187500.02, -187500.02, -187500.02, -187500.02, -187500.02, 0.00, 0.00, 0.00
139, -24871.48, -3508.31, -23193.78, -187500.02, -187500.02, -187500.02, -187500.02, -187500.02, 0.00, 0.00, 0.00
140, -24931.98, -4094.53, -23620.74, -187500.02, -187500.02, -187500.02, -187500.02, -187500.02, 0.00, 0.00, 0.00
141, -22361.33, -2160.61, -21519.63, -187500.02, -187500.02, -187500.02, -187500.02, -187500.02, 0.00, 0.00, 0.00
142, -21544.26, -948.41, -20429.70, -187500.02, -187500.02, -187500.02, -187500.02, -187500.02, 0.04, -0.07, 0.51
143, -24423.95, -3059.22, -22748.35, -187500.02, -187500.02, -187500.02, -187500.02, -187500.02, 0.00, 0.00, 0.00
144, -25192.70, -4219.90, -23785.16, -187500.02, -187500.02, -187500.02, -187500.02, -187500.02, 0.00, 0.00, 0.00
145, -22845.29, -2572.33, -21947.76, -187500.02, -187500.02, -187500.02, -187500.02, -187500.02, 0.00, 0.00, 0.00
146, -21325.33, -889.96, -20326.25, -187500.02, -187500.02, -187500.02, -187500.02, -187500.02, 0.00, 0.00, 0.00
147, -23882.26, -2569.74, -22245.15, -187500.02, -187500.02, -187500.02, -187500.02, -187500.02, 0.03, -0.07, 0.51
148, -25349.40, -4252.31, -23851.08, -187500.02, -187500.02, -187500.02, -187500.02, -187500.02, 0.00, 0.00, 0.00
149, -23378.34, -3000.52, -22399.91, -187500.02, -187500.02, -187500.02, -187500.02, -187500.02, 0.00, 0.00, 0.00
150, -21298.28, -993.11, -20388.48, -187500.02, -187500.02, -187500.02, -187500.02, -187500.02, 0.00, 0.00, 0.00
151, -23294.25, -2093.11, -21735.26, -187500.02, -187500.02, -187500.02, -187500.02, -187500.02, 0.00, 0.00, 0.00
152, -25394.04, -4187.64, -23814.38, -187500.02, -187500.02, -187500.02, -187500.02, -187500.02, 0.00, 0.00, 0.00
153, -23874.28, -3371.18, -22806.58, -187500.02, -187500.02, -187500.02, -187500.02, -187500.02, 0.04, -0.08, 0.50
154, -21436.10, -1219.87, -20586.43, -187500.02, -187500.02, -187500.02, -187500.02, -187500.02, 0.00, 0.00, 0.00
155, -22700.81, -1645.36, -21244.24, -187500.02, -187500.02, -187500.02, -187500.02, -187500.02, 0.00, 0.00, 0.00
156, -25289.08, -3998.91, -23645.96, -187500.02, -187500.02, -187500.02, -187500.02, -187500.02, 0.00, 0.00, 0.00
157, -24324.17, -3691.70, -23155.11, -187500.02, -187500.02, -187500.02, -187500.02, -187500.02, 0.00, 0.00, 0.00
158, -21688.70, -1509.21, -20861.31, -187500.02, -187500.02, -187500.02, -187500.02, -187500.02, 0.04, -0.08, 0.50
159, -22149.77, -1257.98, -20812.96, -187500.02, -187500.02, -187500.02, -187500.02, -187500.02, 0.00, 0.00, 0.00
160, -25065.25, -3719.71, -23380.46, -187500.02, -187500.02, -187500.02, -187500.02, -187500.02, 0.00, 0.00, 0.00
161, -24724.94, -3966.56, -23454.04, -187500.02, -187500.02, -187500.02, -187500.02, -187500.02, 0.00, 0.00, 0.00
162, -22079.66, -1905.17, -21243.12, -187500.02, -187500.02, -187500.02, -187500.02, -187500.02, 0.00, 0.00, 0.00
163, -21714.38, -1015.35, -20510.96, -187500.02, -187500.02, -187500.02, -187500.02, -187500.02, 0.04, -0.08, 0.51
164, -24689.56, -3322.97, -22993.33, -187500.02, -187500.02, -187500.02, -187500.02, -187500.02, 0.00, 0.00, 0.00
165, -25060.30, -4171.86, -23695.84, -187500.02, -187500.02, -187500.02, -187500.02, -187500.02, 0.00, 0.00, 0.00
166, -22569.16, -2347.22, -21697.44, -187500.02, -187500.02, -187500.02, -187500.02, -187500.02, 0.00, 0.00, 0.00
167, -21420.12, -901.18, -20350.93, -187500.02, -187500.02, -187500.02, -187500.02, -187500.02, 0.00, 0.00, 0.00
168, -24204.86, -2864.24, -22536.68, -187500.02, -187500.02, -187500.02, -187500.02, -187500.02, 0.04, -0.08, 0.51
169, -25280.47, -4261.49, -23827.27, -187500.02, -187500.02, -187500.02, -187500.02, -187500.02, 0.00, 0.00, 0.00
170, -23071.65, -2763.39, -22138.87, -187500.02, -187500.02, -187500.02, -187500.02, -187500.02, 0.00, 0.00, 0.00
171, -21283.53, -924.85, -20328.22, -187500.02, -187500.02, -187500.02, -187500.02, -187500.02, 0.00, 0.00, 0.00
172, -23626.38, -2364.70, -22017.92, -187500.02, -187500.02, -187500.02, -187500.02, -187500.02, 0.00, 0.00, 0.00
173, -25380.74, -4236.33, -23841.15, -187500.02, -187500.02, -187500.02, -187500.02, -187500.02, 0.05, -0.08, 0.51
174, -23578.88, -3153.92, -22559.93, -187500.02, -187500.02, -187500.02, -187500.02, -187500.02, 0.00, 0.00, 0.00
175, -21323.94, -1069.20, -20441.27, -187500.02, -187500.02, -187500.02, -187500.02, -187500.02, 0.00, 0.00, 0.00
176, -23021.16, -1885.79, -21503.16, -187500.02, -187500.02, -187500.02, -187500.02, -187500.02, 0.00, 0.00, 0.00
177, -25361.58, -4122.09, -23751.79, -187500.02, -187500.02, -187500.02, -187500.02, -187500.02, 0.00, 0.00, 0.00
178, -24076.70, -3528.38, -22963.24, -187500.02, -187500.02, -187500.02, -187500.02, -187500.02, 0.00, 0.00, 0.00
179, -21525.20, -1331.54, -20687.37, -187500.02, -187500.02, -187500.02, -187500.02, -187500.02, 0.04, -0.07, 0.50
180, -22452.95, -1456.42, -21043.34, -187500.02, -187500.02, -187500.02, -187500.02, -187500.02, 0.00, 0.00, 0.00
181, -25216.81, -3891.37, -23551.88, -187500.02, -187500.02, -187500.02, -187500.02, -187500.02, 0.00, 0.00, 0.00
182, -24519.77, -3831.51, -23306.52, -187500.02, -187500.02, -187500.02, -187500.02, -187500.02, 0.00, 0.00, 0.00
183, -21854.57, -1686.26, -21029.68, -187500.02, -187500.02, -187500.02, -187500.02, -187500.02, 0.00, 0.00, 0.00
184, -21938.37, -1128.36, -20664.08, -187500.02, -187500.02, -187500.02, -187500.02, -187500.02, 0.04, -0.07, 0.50
185, -24900.65, -3534.17, -23209.69, -187500.02, -187500.02, -187500.02, -187500.02, -187500.02, 0.00, 0.00, 0.00
186, -24888.15, -4067.91, -23577.07, -187500.02, -187500.02, -187500.02, -187500.02, -187500.02, 0.00, 0.00, 0.00
187, -22288.96, -2099.57, -21442.32, -187500.02, -187500.02, -187500.02, -187500.02, -187500.02, 0.00, 0.00, 0.00
188, -21561.36, -944.41, -20419.81, -187500.02, -187500.02, -187500.02, -187500.02, -187500.02, 0.00, 0.00, 0.00
189, -24493.67, -3131.41, -22805.08, -187500.02, -187500.02, -187500.02, -187500.02, -187500.02, 0.05, -0.07, 0.50
190, -25167.64, -4220.25, -23763.75, -187500.02, -187500.02, -187500.02, -187500.02, -187500.02, 0.00, 0.00, 0.00
191, -22783.67, -2533.12, -21887.97, -187500.02, -187500.02, -187500.02, -187500.02, -187500.02, 0.00, 0.00, 0.00
192, -21338.47, -891.77, -20317.87, -187500.02, -187500.02, -187500.02, -187500.02, -187500.02, 0.00, 0.00, 0.00
193, -23962.50, -2646.58, -22311.33, -187500.02, -187500.02, -187500.02, -187500.02, -187500.02, 0.00, 0.00, 0.00
194, -25345.56, -4270.28, -23849.29, -187500.02, -187500.02, -187500.02, -187500.02, -187500.02, 0.04, -0.07, 0.50
195, -23295.19, -2941.82, -22321.50, -187500.02, -187500.02, -187500.02, -187500.02, -187500.02, 0.00, 0.00, 0.00
196, -21283.64, -969.69, -20357.86, -187500.02, -187500.02, -187500.02, -187500.02, -187500.02, 0.00, 0.00, 0.00
197, -23374.94, -2148.99, -21796.84, -187500.02, -187500.02, -187500.02, -187500.02, -187500.02, 0.00, 0.00, 0.00
198, -25409.69, -4216.14, -23834.92, -187500.02, -187500.02, -187500.02, -187500.02, -187500.02, 0.00, 0.00, 0.00
199, -23817.82, -3339.33, -22756.33, -187500.02, -187500.02, -187500.02, -187500.02, -187500.02, 0.04, -0.08, 0.50
200, -21396.54, -1174.16, -20535.91, -187500.02, -187500.02, -187500.02, -187500.02, -187500.02, 0.00, 0.00, 0.00
201, -22775.55, -1696.94, -21302.33, -187500.02, -187500.02, -187500.02, -187500.02, -187500.02, 0.00, 0.00, 0.00
202, -25313.77, -4029.62, -23676.80, -187500.02, -187500.02, -187500.02, -187500.02, -187500.02, 0.00, 0.00, 0.00
203, -24273.79, -3660.86, -23113.92, -187500.02, -187500.02, -187500.02, -187500.02, -187500.02, 0.00, 0.00, 0.00
204, -21650.08, -1474.95, -20818.62, -187500.02, -187500.02, -187500.02, -187500.02, -187500.02, 0.00, 0.00, 0.00
205, -22209.72, -1300.76, -20857.39, -187500.02, -187500.02, -187500.02, -187500.02, -187500.02, 0.04, -0.08, 0.51
206, -25096.65, -3747.65, -23415.17, -187500.02, -187500.02, -187500.02, -187500.02, -187500.02, 0.00, 0.00, 0.00
207, -24691.05, -3946.25, -23431.49, -187500.02, -187500.02, -187500.02, -187500.02, -187500.02, 0.00, 0.00, 0.00
208, -22029.37, -1858.03, -21193.90, -187500.02, -187500.02, -187500.02, -187500.02, -187500.02, 0.00, 0.00, 0.00
209, -21750.84, -1023.53, -20531.13, -187500.02, -187500.02, -187500.02, -187500.02, -187500.02, 0.00, 0.00, 0.00
210, -24733.81, -3364.52, -23039.06, -187500.02, -187500.02, -187500.02, -187500.02, -187500.02, 0.03, -0.09, 0.51
211, -25021.57, -4148.24, -23668.08, -187500.02, -187500.02, -187500.02, -187500.02, -187500.02, 0.00, 0.00, 0.00
212, -22502.97, -2291.50, -21633.94, -187500.02, -187500.02, -187500.02, -187500.02, -187500.02, 0.00, 0.00, 0.00
213, -21443.77, -904.62, -20356.61, -187500.02, -187500.02, -187500.02, -187500.02, -187500.02, 0.00, 0.00, 0.00
214, -24265.14, -2914.80, -22588.85, -187500.02, -187500.02, -187500.02, -187500.02, -187500.02, 0.00, 0.00, 0.00
215, -25245.71, -4246.03, -23802.86, -187500.02, -187500.02, -187500.02, -187500.02, -187500.02, 0.04, -0.09, 0.51
216, -23004.97, -2716.27, -22078.72, -187500.02, -187500.02, -187500.02, -187500.02, -187500.02, 0.00, 0.00, 0.00
217, -21297.95, -928.07, -20329.18, -187500.02, -187500.02, -187500.02, -187500.02, -187500.02, 0.00, 0.00, 0.00
218, -23706.62, -2447.45, -22092.60, -187500.02, -187500.02, -187500.02, -187500.02, -187500.02, 0.00, 0.00, 0.00
219, -25383.69, -4267.66, -23857.18, -187500.02, -187500.02, -187500.02, -187500.02, -187500.02, 0.00, 0.00, 0.00
220, -23536.10, -3136.28, -22529.64, -187500.02, -187500.02, -187500.02, -187500.02, -187500.02, 0.04, -0.09, 0.50
221, -21321.17, -1064.52, -20433.99, -187500.02, -187500.02, -187500.02, -187500.02, -187500.02, 0.00, 0.00, 0.00
222, -23119.86, -1967.49, -21589.08, -187500.02, -187500.02, -187500.02, -187500.02, -187500.02, 0.00, 0.00, 0.00
223, -25401.28, -4178.12, -23800.94, -187500.02, -187500.02, -187500.02, -187500.02, -187500.02, 0.00, 0.00, 0.00
224, -24037.38, -3514.45, -22940.62, -187500.02, -187500.02, -187500.02, -187500.02, -187500.02, 0.00, 0.00, 0.00
225, -21512.59, -1330.76, -20677.33, -187500.02, -187500.02, -187500.02, -187500.02, -187500.02, 0.04, -0.08, 0.51
226, -22538.20, -1538.90, -21122.69, -187500.02, -187500.02, -187500.02, -187500.02, -187500.02, 0.00, 0.00, 0.00
227, -25237.44, -3931.58, -23584.93, -187500.02, -187500.02, -187500.02, -187500.02, -187500.02, 0.00, 0.00, 0.00
228, -24469.66, -3807.60, -23273.53, -187500.02, -187500.02, -187500.02, -187500.02, -187500.02, 0.00, 0.00, 0.00
229, -21825.67, -1666.08, -21004.85, -187500.02, -187500.02, -187500.02, -187500.02, -187500.02, 0.00, 0.00, 0.00
230, -22012.64, -1191.26, -20723.53, -187500.02, -187500.02, -187500.02, -187500.02, -187500.02, 0.00, 0.00, 0.00
231, -24955.54, -3600.89, -23267.99, -187500.02, -187500.02, -187500.02, -187500.02, -187500.02, 0.03, -0.08, 0.00
232, -24846.00, -4047.43, -23550.29, -187500.02, -187500.02, -187500.02, -187500.02, -187500.02, 0.00, 0.00, 0.00
233, -22236.05, -2055.11, -21397.19, -187500.02, -187500.02, -187500.02, -187500.02, -187500.02, 0.00, 0.00, 0.00
234, -21610.89, -965.55, -20451.91, -187500.02, -187500.02, -187500.02, -187500.02, -187500.02, 0.00, 0.00, 0.00
235, -24554.93, -3183.94, -22861.23, -187500.02, -187500.02, -187500.02, -187500.02, -187500.02, 0.00, 0.00, 0.00
236, -25141.58, -4205.53, -23742.25, -187500.02, -187500.02, -187500.02, -187500.02, -187500.02, 0.04, -0.07, 0.51
237, -22735.72, -2485.11, -21839.15, -187500.02, -187500.02, -187500.02, -187500.02, -187500.02, 0.00, 0.00, 0.00
238, -21370.35, -896.77, -20330.50, -187500.02, -187500.02, -187500.02, -187500.02, -187500.02, 0.00, 0.00, 0.00
239, -24028.39, -2700.25, -22367.26, -187500.02, -187500.02, -187500.02, -187500.02, -187500.02, 0.00, 0.00, 0.00
240, -25333.24, -4264.31, -23845.85, -187500.02, -187500.02, -187500.02, -187500.02, -187500.02, 0.00, 0.00, 0.00
241, -23246.84, -2900.18, -22284.22, -187500.02, -187500.02, -187500.02, -187500.02, -187500.02, 0.04, -0.08, 0.50
242, -21293.72, -962.67, -20359.64, -187500.02, -187500.02, -187500.02, -187500.02, -187500.02, 0.00, 0.00, 0.00
243, -23453.62, -2221.32, -21866.96, -187500.02, -187500.02, -187500.02, -187500.02, -187500.02, 0.00, 0.00, 0.00
244, -25400.43, -4225.93, -23836.26, -187500.02, -187500.02, -187500.02, -187500.02, -187500.02, 0.00, 0.00, 0.00
245, -23753.82, -3294.27, -22702.85, -187500.02, -187500.02, -187500.02, -187500.02, -187500.02, 0.00, 0.00, 0.00
246, -21394.78, -1165.46, -20525.07, -187500.02, -187500.02, -187500.02, -187500.02, -187500.02, 0.04, -0.08, 0.51
247, -22860.13, -1759.22, -21364.15, -187500.02, -187500.02, -187500.02, -187500.02, -187500.02, 0.00, 0.00, 0.00
248, -25345.51, -4070.61, -23706.59, -187500.02, -187500.02, -187500.02, -187500.02, -187500.02, 0.00, 0.00, 0.00
249, -24236.15, -3638.62, -23082.11, -187500.02, -187500.02, -187500.02, -187500.02, -187500.02, 0.00, 0.00, 0.00
250, -21627.90, -1451.12, -20789.27, -187500.02, -187500.02, -187500.02, -187500.02, -187500.02, 0.00, 0.00, 0.00
251, -22280.49, -1350.87, -20907.02, -187500.02, -187500.02, -187500.02, -187500.02, -187500.02, 0.04, -0.09, 0.50
252, -25126.89, -3788.67, -23443.16, -187500.02, -187500.02, -187500.02, -187500.02, -187500.02, 0.00, 0.00, 0.00
253, -24637.14, -3914.64, -23386.32, -187500.02, -187500.02, -187500.02, -187500.02, -187500.02, 0.00, 0.00, 0.00
254, -21988.95, -1826.52, -21155.81, -187500.02, -187500.02, -187500.02, -187500.02, -187500.02, 0.00, 0.00, 0.00
255, -21826.72, -1087.64, -20591.37, -187500.02, -187500.02, -187500.02, -187500.02, -187500.02, 0.00, 0.00, 0.00
0, -24787.30, -3428.36, -23092.88, -187500.02, -187500.02, -187500.02, -187500.02, -187500.02, 0.00, 0.00, 0.00
1, -24973.20, -4118.20, -23628.30, -187500.02, -187500.02, -187500.02, -187500.02, -187500.02, 0.04, -0.09, 0.50
2, -22444.77, -2243.13, -21577.75, -187500.02, -187500.02, -187500.02, -187500.02, -187500.02, 0.00, 0.00, 0.00
3, -21486.91, -931.87, -20377.46, -187500.02, -187500.02, -187500.02, -187500.02, -187500.02, 0.00, 0.00, 0.00
4, -24340.58, -2988.81, -22651.12, -187500.02, -187500.02, -187500.02, -187500.02, -187500.02, 0.00, 0.00, 0.00
5, -25240.30, -4247.37, -23797.05, -187500.02, -187500.02, -187500.02, -187500.02, -187500.02, 0.00, 0.00, 0.00
6, -22949.00, -2663.68, -22019.96, -187500.02, -187500.02, -187500.02, -187500.02, -187500.02, 0.04, -0.08, 0.50
7, -21308.74, -906.79, -20312.39, -187500.02, -187500.02, -187500.02, -187500.02, -187500.02, 0.00, 0.00, 0.00
8, -23765.07, -2475.37, -22126.59, -187500.02, -187500.02, -187500.02, -187500.02, -187500.02, 0.00, 0.00, 0.00
9, -25351.41, -4242.36, -23824.61, -187500.02, -187500.02, -187500.02, -187500.02, -187500.02, 0.00, 0.00, 0.00
10, -23438.24, -3051.55, -22433.19, -187500.02, -187500.02, -187500.02, -187500.02, -187500.02, 0.00, 0.00, 0.00
11, -21297.30, -1024.34, -20392.70, -187500.02, -187500.02, -187500.02, -187500.02, -187500.02, 0.04, -0.07, 0.51
12, -23176.95, -2004.79, -21626.85, -187500.02, -187500.02, -187500.02, -187500.02, -187500.02, 0.00, 0.00, 0.00
13, -25388.12, -4176.89, -23790.01, -187500.02, -187500.02, -187500.02, -187500.02, -187500.02, 0.00, 0.00, 0.00
14, -23972.02, -3465.35, -22880.83, -187500.02, -187500.02, -187500.02, -187500.02, -187500.02, 0.00, 0.00, 0.00
15, -21480.85, -1288.89, -20631.98, -187500.02, -187500.02, -187500.02, -187500.02, -187500.02, 0.00, 0.00, 0.00
16, -22602.98, -1581.65, -21160.24, -187500.02, -187500.02, -187500.02, -187500.02, -187500.02, 0.03, -0.07, 0.00
17, -25268.42, -3970.09, -23610.57, -187500.02, -187500.02, -187500.02, -187500.02, -187500.02, 0.00, 0.00, 0.00
18, -24413.33, -3765.91, -23221.76, -187500.02, -187500.02, -187500.02, -187500.02, -187500.02, 0.00, 0.00, 0.00
19, -21766.64, -1609.26, -20941.51, -187500.02, -187500.02, -187500.02, -187500.02, -187500.02, 0.00, 0.00, 0.00
20, -22079.32, -1236.43, -20770.22, -187500.02, -187500.02, -187500.02, -187500.02, -187500.02, 0.00, 0.00, 0.00
21, -25011.45, -3666.65, -23324.58, -187500.02, -187500.02, -187500.02, -187500.02, -187500.02, 0.03, -0.09, 0.00
22, -24819.40, -4047.39, -23533.57, -187500.02, -187500.02, -187500.02, -187500.02, -187500.02, 0.00, 0.00, 0.00
23, -22192.44, -2029.29, -21354.41, -187500.02, -187500.02, -187500.02, -187500.02, -187500.02, 0.00, 0.00, 0.00
24, -21666.01, -1010.84, -20489.78, -187500.02, -187500.02, -187500.02, -187500.02, -187500.02, 0.00, 0.00, 0.00
25, -24612.18, -3246.12, -22916.15, -187500.02, -187500.02, -187500.02, -187500.02, -187500.02, 0.00, 0.00, 0.00
26, -25099.04, -4180.54, -23710.69, -187500.02, -187500.02, -187500.02, -187500.02, -187500.02, 0.00, 0.00, 0.00
27, -22655.73, -2418.17, -21765.14, -187500.02, -187500.02, -187500.02, -187500.02, -187500.02, 0.04, -0.08, 0.51
28, -21397.19, -907.12, -20339.55, -187500.02, -187500.02, -187500.02, -187500.02, -187500.02, 0.00, 0.00, 0.00
29, -24109.06, -2776.47, -22438.89, -187500.02, -187500.02, -187500.02, -187500.02, -187500.02, 0.00, 0.00, 0.00
30, -25319.43, -4275.42, -23841.69, -187500.02, -187500.02, -187500.02, -187500.02, -187500.02, 0.00, 0.00, 0.00
31, -23186.04, -2859.15, -22229.26, -187500.02, -187500.02, -187500.02, -187500.02, -187500.02, 0.00, 0.00, 0.00
32, -21298.35, -956.41, -20348.36, -187500.02, -187500.02, -187500.02, -187500.02, -187500.02, 0.03, -0.08, 0.50
33, -23529.44, -2291.90, -21928.45, -187500.02, -187500.02, -187500.02, -187500.02, -187500.02, 0.00, 0.00, 0.00
34, -25391.96, -4235.90, -23830.78, -187500.02, -187500.02, -187500.02, -187500.02, -187500.02, 0.00, 0.00, 0.00
35, -23690.52, -3253.12, -22647.17, -187500.02, -187500.02, -187500.02, -187500.02, -187500.02, 0.00, 0.00, 0.00
36, -21365.41, -1134.89, -20488.88, -187500.02, -187500.02, -187500.02, -187500.02, -187500.02, 0.00, 0.00, 0.00
37, -22926.68, -1818.36, -21419.70, -187500.02, -187500.02, -187500.02, -187500.02, -187500.02, 0.04, -0.07, 0.50
38, -25353.87, -4101.10, -23725.62, -187500.02, -187500.02, -187500.02, -187500.02, -187500.02, 0.00, 0.00, 0.00
39, -24171.13, -3609.29, -23037.79, -187500.02, -187500.02, -187500.02, -187500.02, -187500.02, 0.00, 0.00, 0.00
40, -21585.10, -1423.63, -20755.34, -187500.02, -187500.02, -187500.02, -187500.02, -187500.02, 0.00, 0.00, 0.00
41, -22354.85, -1418.84, -20975.26, -187500.02, -187500.02, -187500.02, -187500.02, -187500.02, 0.00, 0.00, 0.00
42, -25159.44, -3840.88, -23491.62, -187500.02, -187500.02, -187500.02, -187500.02, -187500.02, 0.04, -0.08, 0.51
43, -24587.95, -3897.41, -23363.12, -187500.02, -187500.02, -187500.02, -187500.02, -187500.02, 0.00, 0.00, 0.00
44, -21931.84, -1789.50, -21113.14, -187500.02, -187500.02, -187500.02, -187500.02, -187500.02, 0.00, 0.00, 0.00
45, -21863.98, -1111.35, -20618.88, -187500.02, -187500.02, -187500.02, -187500.02, -187500.02, 0.00, 0.00, 0.00
46, -24831.31, -3474.94, -23142.06, -187500.02, -187500.02, -187500.02, -187500.02, -187500.02, 0.00, 0.00, 0.00
47, -24919.31, -4091.29, -23597.12, -187500.02, -187500.02, -187500.02, -187500.02, -187500.02, 0.03, -0.08, 0.50
48, -22365.31, -2185.46, -21520.62, -187500.02, -187500.02, -187500.02, -187500.02, -187500.02, 0.00, 0.00, 0.00
49, -21502.69, -942.22, -20398.83, -187500.02, -187500.02, -187500.02, -187500.02, -187500.02, 0.00, 0.00, 0.00
50, -24384.72, -3049.69, -22715.83, -187500.02, -187500.02, -187500.02, -187500.02, -187500.02, 0.00, 0.00, 0.00
51, -25184.87, -4239.28, -23781.63, -187500.02, -187500.02, -187500.02, -187500.02, -187500.02, 0.00, 0.00, 0.00
52, -22864.36, -2623.11, -21976.17, -187500.02, -187500.02, -187500.02, -187500.02, -187500.02, 0.00, 0.00, 0.00
53, -21305.86, -917.87, -20328.08, -187500.02, -187500.02, -187500.02, -187500.02, -187500.02, 0.04, -0.08, 0.51
54, -23834.22, -2564.89, -22214.97, -187500.02, -187500.02, -187500.02, -187500.02, -187500.02, 0.00, 0.00, 0.00
55, -25329.69, -4260.56, -23837.22, -187500.02, -187500.02, -187500.02, -187500.02, -187500.02, 0.00, 0.00, 0.00
56, -23370.58, -3025.31, -22400.49, -187500.02, -187500.02, -187500.02, -187500.02, -187500.02, 0.00, 0.00, 0.00
57, -21270.50, -1008.02, -20375.09, -187500.02, -187500.02, -187500.02, -187500.02, -187500.02, 0.00, 0.00, 0.00
58, -23235.40, -2072.97, -21690.11, -187500.02, -187500.02, -187500.02, -187500.02, -187500.02, 0.04, -0.07, 0.50
59, -25363.33, -4190.37, -23792.22, -187500.02, -187500.02, -187500.02, -187500.02, -187500.02, 0.00, 0.00, 0.00
60, -23880.96, -3415.37, -22820.77, -187500.02, -187500.02, -187500.02, -187500.02, -187500.02, 0.00, 0.00, 0.00
61, -21425.67, -1258.78, -20594.09, -187500.02, -187500.02, -187500.02, -187500.02, -187500.02, 0.00, 0.00, 0.00
62, -22649.51, -1633.49, -21212.59, -187500.02, -187500.02, -187500.02, -187500.02, -187500.02, 0.00, 0.00, 0.00
63, -25261.02, -3993.38, -23626.33, -187500.02, -187500.02, -187500.02, -187500.02, -187500.02, 0.03, -0.07, 0.50
64, -24322.83, -3723.85, -23161.23, -187500.02, -187500.02, -187500.02, -187500.02, -187500.02, 0.00, 0.00, 0.00
65, -21689.37, -1554.39, -20876.51, -187500.02, -187500.02, -187500.02, -187500.02, -187500.02, 0.00, 0.00, 0.00
66, -22106.68, -1265.04, -20792.53, -187500.02, -187500.02, -187500.02, -187500.02, -187500.02, 0.00, 0.00, 0.00
67, -25020.68, -3700.87, -23346.33, -187500.02, -187500.02, -187500.02, -187500.02, -187500.02, 0.00, 0.00, 0.00
68, -24734.64, -4005.48, -23470.20, -187500.02, -187500.02, -187500.02, -187500.02, -187500.02, 0.04, -0.08, 0.50
69, -22104.53, -1966.84, -21278.93, -187500.02, -187500.02, -187500.02, -187500.02, -187500.02, 0.00, 0.00, 0.00
70, -21680.48, -1023.96, -20496.57, -187500.02, -187500.02, -187500.02, -187500.02, -187500.02, 0.00, 0.00, 0.00
71, -24630.10, -3290.82, -22944.22, -187500.02, -187500.02, -187500.02, -187500.02, -187500.02, 0.00, 0.00, 0.00
72, -25035.09, -4158.59, -23669.24, -187500.02, -187500.02, -187500.02, -187500.02, -187500.02, 0.00, 0.00, 0.00
73, -22581.77, -2381.91, -21709.69, -187500.02, -187500.02, -187500.02, -187500.02, -187500.02, 0.03, -0.08, 0.50
74, -21407.58, -925.43, -20349.56, -187500.02, -187500.02, -187500.02, -187500.02, -187500.02, 0.00, 0.00, 0.00
75, -24151.04, -2833.89, -22486.68, -187500.02, -187500.02, -187500.02, -187500.02, -187500.02, 0.00, 0.00, 0.00
76, -25262.54, -4256.38, -23804.25, -187500.02, -187500.02, -187500.02, -187500.02, -187500.02, 0.00, 0.00, 0.00
77, -23093.98, -2800.96, -22153.93, -187500.02, -187500.02, -187500.02, -187500.02, -187500.02, 0.00, 0.00, 0.00
78, -21289.48, -954.44, -20336.04, -187500.02, -187500.02, -187500.02, -187500.02, -187500.02, 0.00, 0.00, 0.00
79, -23577.60, -2345.46, -21976.44, -187500.02, -187500.02, -187500.02, -187500.02, -187500.02, 0.03, -0.09, 0.51
80, -25354.95, -4237.24, -23816.34, -187500.02, -187500.02, -187500.02, -187500.02, -187500.02, 0.00, 0.00, 0.00
81, -23595.66, -3200.81, -22577.65, -187500.02, -187500.02, -187500.02, -187500.02, -187500.02, 0.00, 0.00, 0.00
82, -21337.49, -1125.08, -20465.10, -187500.02, -187500.02, -187500.02, -187500.02, -187500.02, 0.00, 0.00, 0.00
83, -22992.88, -1889.59, -21484.92, -187500.02, -187500.02, -187500.02, -187500.02, -187500.02, 0.00, 0.00, 0.00
84, -25347.15, -4125.69, -23736.26, -187500.02, -187500.02, -187500.02, -187500.02, -187500.02, 0.03, -0.08, 0.51
85, -24097.62, -3568.72, -22982.24, -187500.02, -187500.02, -187500.02, -187500.02, -187500.02, 0.00, 0.00, 0.00
86, -21546.12, -1392.27, -20715.10, -187500.02, -187500.02, -187500.02, -187500.02, -187500.02, 0.00, 0.00, 0.00
87, -22412.29, -1465.81, -21015.73, -187500.02, -187500.02, -187500.02, -187500.02, -187500.02, 0.00, 0.00, 0.00
88, -25175.89, -3878.39, -23512.18, -187500.02, -187500.02, -187500.02, -187500.02, -187500.02, 0.00, 0.00, 0.00
89, -24523.28, -3856.10, -23306.45, -187500.02, -187500.02, -187500.02, -187500.02, -187500.02, 0.03, -0.08, 0.51
90, -21872.43, -1732.75, -21046.92, -187500.02, -187500.02, -187500.02, -187500.02, -187500.02, 0.00, 0.00, 0.00
91, -21917.87, -1146.44, -20651.16, -187500.02, -187500.02, -187500.02, -187500.02, -187500.02, 0.00, 0.00, 0.00
92, -24879.32, -3538.62, -23190.07, -187500.02, -187500.02, -187500.02, -187500.02, -187500.02, 0.00, 0.00, 0.00
93, -24893.16, -4090.46, -23577.74, -187500.02, -187500.02, -187500.02, -187500.02, -187500.02, 0.00, 0.00, 0.00
94, -22327.38, -2156.70, -21476.81, -187500.02, -187500.02, -187500.02, -187500.02, -187500.02, 0.03, -0.08, 0.51
95, -21552.94, -970.11, -20418.21, -187500.02, -187500.02, -187500.02, -187500.02, -187500.02, 0.00, 0.00, 0.00
96, -24446.17, -3099.65, -22755.19, -187500.02, -187500.02, -187500.02, -187500.02, -187500.02, 0.00, 0.00, 0.00
97, -25156.33, -4221.80, -23741.89, -187500.02, -187500.02, -187500.02, -187500.02, -187500.02, 0.00, 0.00, 0.00
98, -22793.66, -2562.81, -21890.00, -187500.02, -187500.02, -187500.02, -187500.02, -187500.02, 0.00, 0.00, 0.00
99, -21329.33, -920.24, -20312.84, -187500.02, -187500.02, -187500.02, -187500.02, -187500.02, 0.04, -0.07, 0.00
100, -23909.08, -2621.12, -22258.67, -187500.02, -187500.02, -187500.02, -187500.02, -187500.02, 0.00, 0.00, 0.00
101, -25328.95, -4270.99, -23826.04, -187500.02, -187500.02, -187500.02, -187500.02, -187500.02, 0.00, 0.00, 0.00
102, -23329.23, -2996.39, -22348.97, -187500.02, -187500.02, -187500.02, -187500.02, -187500.02, 0.00, 0.00, 0.00
103, -21301.41, -1021.56, -20379.87, -187500.02, -187500.02, -187500.02, -187500.02, -187500.02, 0.00, 0.00, 0.00
104, -23338.21, -2149.14, -21766.82, -187500.02, -187500.02, -187500.02, -187500.02, -187500.02, 0.00, 0.00, 0.00
105, -25381.01, -4210.55, -23803.58, -187500.02, -187500.02, -187500.02, -187500.02, -187500.02, 0.04, -0.07, 0.51
106, -23829.69, -3369.23, -22762.28, -187500.02, -187500.02, -187500.02, -187500.02, -187500.02, 0.00, 0.00, 0.00
107, -21410.27, -1219.78, -20550.66, -187500.02, -187500.02, -187500.02, -187500.02, -187500.02, 0.00, 0.00, 0.00
108, -22731.59, -1687.85, -21262.57, -187500.02, -187500.02, -187500.02, -187500.02, -187500.02, 0.00, 0.00, 0.00
109, -25289.52, -4029.48, -23649.58, -187500.02, -187500.02, -187500.02, -187500.02, -187500.02, 0.00, 0.00, 0.00
110, -24294.89, -3709.18, -23134.14, -187500.02, -187500.02, -187500.02, -187500.02, -187500.02, 0.03, -0.07, 0.00
111, -21687.52, -1547.72, -20862.54, -187500.02, -187500.02, -187500.02, -187500.02, -187500.02, 0.00, 0.00, 0.00
112, -22194.21, -1320.27, -20852.50, -187500.02, -187500.02, -187500.02, -187500.02, -187500.02, 0.00, 0.00, 0.00
113, -25060.57, -3737.59, -23381.40, -187500.02, -187500.02, -187500.02, -187500.02, -187500.02, 0.00, 0.00, 0.00
114, -24695.26, -3972.17, -23436.18, -187500.02, -187500.02, -187500.02, -187500.02, -187500.02, 0.00, 0.00, 0.00
115, -22068.55, -1925.02, -21236.84, -187500.02, -187500.02, -187500.02, -187500.02, -187500.02, 0.03, -0.08, 0.00
116, -21746.21, -1057.80, -20536.20, -187500.02, -187500.02, -187500.02, -187500.02, -187500.02, 0.00, 0.00, 0.00
117, -24712.33, -3364.74, -23015.93, -187500.02, -187500.02, -187500.02, -187500.02, -187500.02, 0.00, 0.00, 0.00
118, -25024.21, -4160.67, -23662.74, -187500.02, -187500.02, -187500.02, -187500.02, -187500.02, 0.00, 0.00, 0.00
119, -22531.56, -2338.86, -21658.10, -187500.02, -187500.02, -187500.02, -187500.02, -187500.02, 0.00, 0.00, 0.00
120, -21439.26, -933.90, -20357.10, -187500.02, -187500.02, -187500.02, -187500.02, -187500.02, 0.04, -0.08, 0.51
121, -24231.88, -2907.69, -22555.61, -187500.02, -187500.02, -187500.02, -187500.02, -187500.02, 0.00, 0.00, 0.00
122, -25241.13, -4249.83, -23790.10, -187500.02, -187500.02, -187500.02, -187500.02, -187500.02, 0.00, 0.00, 0.00
123, -23021.94, -2743.92, -22088.91, -187500.02, -187500.02, -187500.02, -187500.02, -187500.02, 0.00, 0.00, 0.00
124, -21295.89, -939.91, -20323.64, -187500.02, -187500.02, -187500.02, -187500.02, -187500.02, 0.00, 0.00, 0.00
125, -23674.54, -2421.83, -22052.65, -187500.02, -187500.02, -187500.02, -187500.02, -187500.02, 0.00, 0.00, 0.00
126, -25379.76, -4272.63, -23842.98, -187500.02, -187500.02, -187500.02, -187500.02, -187500.02, 0.03, -0.08, 0.51
127, -23552.70, -3168.27, -22538.00, -187500.02, -187500.02, -187500.02, -187500.02, -187500.02, 0.00, 0.00, 0.00
128, -21324.10, -1092.58, -20435.71, -187500.02, -187500.02, -187500.02, -187500.02, -187500.02, 0.00, 0.00, 0.00
129, -23065.77, -1937.49, -21537.36, -187500.02, -187500.02, -187500.02, -187500.02, -187500.02, 0.00, 0.00, 0.00
130, -25355.77, -4136.57, -23746.72, -187500.02, -187500.02, -187500.02, -187500.02, -187500.02, 0.00, 0.00, 0.00
131, -24028.73, -3511.66, -22919.52, -187500.02, -187500.02, -187500.02, -187500.02, -187500.02, 0.03, -0.08, 0.51
132, -21508.95, -1338.98, -20665.19, -187500.02, -187500.02, -187500.02, -187500.02, -187500.02, 0.00, 0.00, 0.00
133, -22492.78, -1510.22, -21071.19, -187500.02, -187500.02, -187500.02, -187500.02, -187500.02, 0.00, 0.00, 0.00
134, -25222.36, -3922.53, -23556.19, -187500.02, -187500.02, -187500.02, -187500.02, -187500.02, 0.00, 0.00, 0.00
135, -24496.08, -3840.99, -23287.21, -187500.02, -187500.02, -187500.02, -187500.02, -187500.02, 0.00, 0.00, 0.00
136, -21842.44, -1698.31, -21013.61, -187500.02, -187500.02, -187500.02, -187500.02, -187500.02, 0.04, -0.07, 0.51
137, -21989.76, -1189.27, -20698.56, -187500.02, -187500.02, -187500.02, -187500.02, -187500.02, 0.00, 0.00, 0.00
138, -24934.02, -3586.14, -23237.48, -187500.02, -187500.02, -187500.02, -187500.02, -187500.02, 0.00, 0.00, 0.00
139, -24848.41, -4056.08, -23537.28, -187500.02, -187500.02, -187500.02, -187500.02, -187500.02, 0.00, 0.00, 0.00
140, -22255.61, -2091.81, -21405.84, -187500.02, -187500.02, -187500.02, -187500.02, -187500.02, 0.00, 0.00, 0.00
141, -21592.90, -982.72, -20436.33, -187500.02, -187500.02, -187500.02, -187500.02, -187500.02, 0.04, -0.07, 0.50
142, -24523.13, -3173.14, -22827.75, -187500.02, -187500.02, -187500.02, -187500.02, -187500.02, 0.00, 0.00, 0.00
143, -25136.35, -4215.74, -23733.69, -187500.02, -187500.02, -187500.02, -187500.02, -187500.02, 0.00, 0.00, 0.00
144, -22743.88, -2512.09, -21844.38, -187500.02, -187500.02, -187500.02, -187500.02, -187500.02, 0.00, 0.00, 0.00
145, -21356.11, -910.70, -20320.28, -187500.02, -187500.02, -187500.02, -187500.02, -187500.02, 0.00, 0.00, 0.00
146, -24004.01, -2695.89, -22343.07, -187500.02, -187500.02, -187500.02, -187500.02, -187500.02, 0.04, -0.08, 0.50
147, -25330.45, -4274.91, -23836.08, -187500.02, -187500.02, -187500.02, -187500.02, -187500.02, 0.00, 0.00, 0.00
148, -23262.55, -2927.99, -22291.21, -187500.02, -187500.02, -187500.02, -187500.02, -187500.02, 0.00, 0.00, 0.00
149, -21300.07, -996.28, -20366.26, -187500.02, -187500.02, -187500.02, -187500.02, -187500.02, 0.00, 0.00, 0.00
150, -23415.53, -2200.84, -21829.18, -187500.02, -187500.02, -187500.02, -187500.02, -187500.02, 0.00, 0.00, 0.00
151, -25387.29, -4218.44, -23813.19, -187500.02, -187500.02, -187500.02, -187500.02, -187500.02, 0.00, 0.00, 0.00
152, -23775.82, -3325.89, -22717.02, -187500.02, -187500.02, -187500.02, -187500.02, -187500.02, 0.04, -0.07, 0.50
153, -21394.84, -1187.62, -20527.33, -187500.02, -187500.02, -187500.02, -187500.02, -187500.02, 0.00, 0.00, 0.00
154, -22827.14, -1744.04, -21336.97, -187500.02, -187500.02, -187500.02, -187500.02, -187500.02, 0.00, 0.00, 0.00
155, -25326.00, -4057.89, -23685.96, -187500.02, -187500.02, -187500.02, -187500.02, -187500.02, 0.00, 0.00, 0.00
156, -24252.51, -3670.83, -23099.83, -187500.02, -187500.02, -187500.02, -187500.02, -187500.02, 0.00, 0.00, 0.00
157, -21654.95, -1495.67, -20821.70, -187500.02, -187500.02, -187500.02, -187500.02, -187500.02, 0.04, -0.08, 0.50
158, -22272.64, -1355.61, -20906.39, -187500.02, -187500.02, -187500.02, -187500.02, -187500.02, 0.00, 0.00, 0.00
159, -25104.54, -3774.96, -23424.20, -187500.02, -187500.02, -187500.02, -187500.02, -187500.02, 0.00, 0.00, 0.00
160, -24643.38, -3923.94, -23391.17, -187500.02, -187500.02, -187500.02, -187500.02, -187500.02, 0.00, 0.00, 0.00
161, -22011.46, -1856.56, -21176.06, -187500.02, -187500.02, -187500.02, -187500.02, -187500.02, 0.00, 0.00, 0.00
162, -21804.06, -1080.06, -20571.96, -187500.02, -187500.02, -187500.02, -187500.02, -187500.02, 0.03, -0.08, 0.50
163, -24776.10, -3413.56, -23076.77, -187500.02, -187500.02, -187500.02, -187500.02, -187500.02, 0.00, 0.00, 0.00
164, -24995.33, -4145.04, -23646.89, -187500.02, -187500.02, -187500.02, -187500.02, -187500.02, 0.00, 0.00, 0.00
165, -22464.17, -2269.24, -21595.61, -187500.02, -187500.02, -187500.02, -187500.02, -187500.02, 0.00, 0.00, 0.00
166, -21475.06, -927.20, -20368.52, -187500.02, -187500.02, -187500.02, -187500.02, -187500.02, 0.00, 0.00, 0.00
167, -24308.97, -2966.08, -22621.55, -187500.02, -187500.02, -187500.02, -187500.02, -187500.02, 0.03, -0.08, 0.50
168, -25233.22, -4252.49, -23789.01, -187500.02, -187500.02, -187500.02, -187500.02, -187500.02, 0.00, 0.00, 0.00
169, -22974.24, -2703.40, -22046.40, -187500.02, -187500.02, -187500.02, -187500.02, -187500.02, 0.00, 0.00, 0.00
170, -21318.69, -943.53, -20332.35, -187500.02, -187500.02, -187500.02, -187500.02, -187500.02, 0.00, 0.00, 0.00
171, -23754.70, -2485.38, -22123.89, -187500.02, -187500.02, -187500.02, -187500.02, -187500.02, 0.00, 0.00, 0.00
172, -25379.96, -4280.65, -23853.13, -187500.02, -187500.02, -187500.02, -187500.02, -187500.02, 0.03, -0.07, 0.50
173, -23493.63, -3119.32, -22489.56, -187500.02, -187500.02, -187500.02, -187500.02, -187500.02, 0.00, 0.00, 0.00
174, -21332.15, -1079.99, -20432.18, -187500.02, -187500.02, -187500.02, -187500.02, -187500.02, 0.00, 0.00, 0.00
175, -23169.86, -2018.68, -21625.38, -187500.02, -187500.02, -187500.02, -187500.02, -187500.02, 0.00, 0.00, 0.00
176, -25366.64, -4161.78, -23768.89, -187500.02, -187500.02, -187500.02, -187500.02, -187500.02, 0.00, 0.00, 0.00
177, -23977.97, -3478.20, -22884.97, -187500.02, -187500.02, -187500.02, -187500.02, -187500.02, 0.00, 0.00, 0.00
178, -21497.44, -1325.91, -20652.65, -187500.02, -187500.02, -187500.02, -187500.02, -187500.02, 0.04, -0.07, 0.51
179, -22585.25, -1582.44, -21149.38, -187500.02, -187500.02, -187500.02, -187500.02, -187500.02, 0.00, 0.00, 0.00
180, -25260.96, -3969.76, -23601.59, -187500.02, -187500.02, -187500.02, -187500.02, -187500.02, 0.00, 0.00, 0.00
181, -24440.34, -3806.52, -23246.10, -187500.02, -187500.02, -187500.02, -187500.02, -187500.02, 0.00, 0.00, 0.00
182, -21794.94, -1651.37, -20964.17, -187500.02, -187500.02, -187500.02, -187500.02, -187500.02, 0.00, 0.00, 0.00
183, -22063.65, -1235.81, -20753.95, -187500.02, -187500.02, -187500.02, -187500.02, -187500.02, 0.04, -0.07, 0.00
184, -24988.24, -3644.81, -23297.29, -187500.02, -187500.02, -187500.02, -187500.02, -187500.02, 0.00, 0.00, 0.00
185, -24814.82, -4042.47, -23523.60, -187500.02, -187500.02, -187500.02, -187500.02, -187500.02, 0.00, 0.00, 0.00
186, -22208.38, -2049.30, -21367.73, -187500.02, -187500.02, -187500.02, -187500.02, -187500.02, 0.00, 0.00, 0.00
187, -21652.27, -1010.28, -20480.12, -187500.02, -187500.02, -187500.02, -187500.02, -187500.02, 0.00, 0.00, 0.00
188, -24593.42, -3245.52, -22899.50, -187500.02, -187500.02, -187500.02, -187500.02, -187500.02, 0.04, -0.07, 0.51
189, -25126.73, -4223.36, -23736.63, -187500.02, -187500.02, -187500.02, -187500.02, -187500.02, 0.00, 0.00, 0.00
190, -22696.12, -2473.87, -21805.56, -187500.02, -187500.02, -187500.02, -187500.02, -187500.02, 0.00, 0.00, 0.00
191, -21381.25, -919.86, -20335.73, -187500.02, -187500.02, -187500.02, -187500.02, -187500.02, 0.00, 0.00, 0.00
192, -24066.73, -2753.09, -22399.71, -187500.02, -187500.02, -187500.02, -187500.02, -187500.02, 0.00, 0.00, 0.00
193, -25303.78, -4265.74, -23818.73, -187500.02, -187500.02, -187500.02, -187500.02, -187500.02, 0.03, -0.07, 0.00
194, -23199.68, -2882.57, -22237.04, -187500.02, -187500.02, -187500.02, -187500.02, -187500.02, 0.00, 0.00, 0.00
195, -21307.11, -988.22, -20359.00, -187500.02, -187500.02, -187500.02, -187500.02, -187500.02, 0.00, 0.00, 0.00
196, -23493.02, -2268.08, -21892.01, -187500.02, -187500.02, -187500.02, -187500.02, -187500.02, 0.00, 0.00, 0.00
197, -25382.89, -4231.12, -23818.35, -187500.02, -187500.02, -187500.02, -187500.02, -187500.02, 0.00, 0.00, 0.00
198, -23700.27, -3274.22, -22656.93, -187500.02, -187500.02, -187500.02, -187500.02, -187500.02, 0.03, -0.08, 0.51
199, -21375.58, -1150.56, -20498.90, -187500.02, -187500.02, -187500.02, -187500.02, -187500.02, 0.00, 0.00, 0.00
200, -22885.12, -1775.33, -21377.81, -187500.02, -187500.02, -187500.02, -187500.02, -187500.02, 0.00, 0.00, 0.00
201, -25311.58, -4043.72, -23673.27, -187500.02, -187500.02, -187500.02, -187500.02, -187500.02, 0.00, 0.00, 0.00
202, -24156.51, -3574.51, -23006.72, -187500.02, -187500.02, -187500.02, -187500.02, -187500.02, 0.00, 0.00, 0.00
203, -21595.47, -1417.53, -20750.33, -187500.02, -187500.02, -187500.02, -187500.02, -187500.02, 0.00, 0.00, 0.00
204, -22335.79, -1386.50, -20942.40, -187500.02, -187500.02, -187500.02, -187500.02, -187500.02, 0.03, -0.07, 0.00
205, -25145.58, -3806.79, -23458.74, -187500.02, -187500.02, -187500.02, -187500.02, -187500.02, 0.00, 0.00, 0.00
206, -24612.49, -3891.42, -23363.74, -187500.02, -187500.02, -187500.02, -187500.02, -187500.02, 0.00, 0.00, 0.00
207, -21973.31, -1799.61, -21133.30, -187500.02, -187500.02, -187500.02, -187500.02, -187500.02, 0.00, 0.00, 0.00
208, -21871.07, -1100.47, -20614.03, -187500.02, -187500.02, -187500.02, -187500.02, -187500.02, 0.00, 0.00, 0.00
209, -24823.38, -3448.45, -23118.30, -187500.02, -187500.02, -187500.02, -187500.02, -187500.02, 0.03, -0.07, 0.51
210, -24947.45, -4093.10, -23605.77, -187500.02, -187500.02, -187500.02, -187500.02, -187500.02, 0.00, 0.00, 0.00
211, -22402.13, -2193.98, -21535.82, -187500.02, -187500.02, -187500.02, -187500.02, -187500.02, 0.00, 0.00, 0.00
212, -21518.96, -931.75, -20393.82, -187500.02, -187500.02, -187500.02, -187500.02, -187500.02, 0.00, 0.00, 0.00
213, -24372.14, -3005.80, -22673.59, -187500.02, -187500.02, -187500.02, -187500.02, -187500.02, 0.00, 0.00, 0.00
214, -25205.90, -4219.38, -23765.27, -187500.02, -187500.02, -187500.02, -187500.02, -187500.02, 0.03, -0.08, 0.51
215, -22901.31, -2617.43, -21974.47, -187500.02, -187500.02, -187500.02, -187500.02, -187500.02, 0.00, 0.00, 0.00
216, -21329.80, -907.39, -20317.82, -187500.02, -187500.02, -187500.02, -187500.02, -187500.02, 0.00, 0.00, 0.00
217, -23832.23, -2519.76, -22178.00, -187500.02, -187500.02, -187500.02, -187500.02, -187500.02, 0.00, 0.00, 0.00
218, -25345.00, -4229.33, -23815.98, -187500.02, -187500.02, -187500.02, -187500.02, -187500.02, 0.00, 0.00, 0.00
219, -23413.96, -3031.39, -22412.25, -187500.02, -187500.02, -187500.02, -187500.02, -187500.02, 0.04, -0.08, 0.51
220, -21316.28, -1029.10, -20400.17, -187500.02, -187500.02, -187500.02, -187500.02, -187500.02, 0.00, 0.00, 0.00
221, -23235.17, -2040.20, -21668.76, -187500.02, -187500.02, -187500.02, -187500.02, -187500.02, 0.00, 0.00, 0.00
222, -25383.58, -4163.39, -23782.72, -187500.02, -187500.02, -187500.02, -187500.02, -187500.02, 0.00, 0.00, 0.00
223, -23928.46, -3417.11, -22836.35, -187500.02, -187500.02, -187500.02, -187500.02, -187500.02, 0.00, 0.00, 0.00
224, -21467.98, -1254.65, -20609.74, -187500.02, -187500.02, -187500.02, -187500.02, -187500.02, 0.04, -0.08, 0.50
225, -22657.45, -1603.94, -21207.65, -187500.02, -187500.02, -187500.02, -187500.02, -187500.02, 0.00, 0.00, 0.00
226, -25275.24, -3959.99, -23627.11, -187500.02, -187500.02, -187500.02, -187500.02, -187500.02, 0.00, 0.00, 0.00
227, -24377.26, -3717.74, -23201.36, -187500.02, -187500.02, -187500.02, -187500.02, -187500.02, 0.00, 0.00, 0.00
228, -21755.49, -1574.37, -20938.06, -187500.02, -187500.02, -187500.02, -187500.02, -187500.02, 0.00, 0.00, 0.00
229, -22120.09, -1242.40, -20810.66, -187500.02, -187500.02, -187500.02, -187500.02, -187500.02, 0.00, 0.00, 0.00
230, -25014.37, -3654.29, -23346.15, -187500.02, -187500.02, -187500.02, -187500.02, -187500.02, 0.03, -0.08, 0.51
231, -24765.66, -3991.53, -23510.55, -187500.02, -187500.02, -187500.02, -187500.02, -187500.02, 0.00, 0.00, 0.00
232, -22142.55, -1969.75, -21333.42, -187500.02, -187500.02, -187500.02, -187500.02, -187500.02, 0.00, 0.00, 0.00
233, -21687.16, -1007.91, -20527.30, -187500.02, -187500.02, -187500.02, -187500.02, -187500.02, 0.00, 0.00, 0.00
234, -24624.07, -3260.43, -22961.19, -187500.02, -187500.02, -187500.02, -187500.02, -187500.02, 0.00, 0.00, 0.00
235, -25052.04, -4156.60, -23711.20, -187500.02, -187500.02, -187500.02, -187500.02, -187500.02, 0.03, -0.08, 0.50
236, -22606.24, -2392.44, -21764.18, -187500.02, -187500.02, -187500.02, -187500.02, -187500.02, 0.00, 0.00, 0.00
237, -21387.53, -899.90, -20366.48, -187500.02, -187500.02, -187500.02, -187500.02, -187500.02, 0.00, 0.00, 0.00
238, -24122.58, -2796.92, -22496.38, -187500.02, -187500.02, -187500.02, -187500.02, -187500.02, 0.00, 0.00, 0.00
239, -25258.90, -4237.00, -23837.75, -187500.02, -187500.02, -187500.02, -187500.02, -187500.02, 0.00, 0.00, 0.00
240, -23107.88, -2806.75, -22210.46, -187500.02, -187500.02, -187500.02, -187500.02, -187500.02, 0.03, -0.08, 0.49
241, -21279.89, -951.78, -20379.81, -187500.02, -187500.02, -187500.02, -187500.02, -187500.02, 0.00, 0.00, 0.00
242, -23538.49, -2312.67, -21990.03, -187500.02, -187500.02, -187500.02, -187500.02, -187500.02, 0.00, 0.00, 0.00
243, -25344.20, -4219.72, -23853.02, -187500.02, -187500.02, -187500.02, -187500.02, -187500.02, 0.00, 0.00, 0.00
244, -23599.96, -3194.27, -22630.02, -187500.02, -187500.02, -187500.02, -187500.02, -187500.02, 0.00, 0.00, 0.00
245, -21319.56, -1098.23, -20502.14, -187500.02, -187500.02, -187500.02, -187500.02, -187500.02, 0.03, -0.08, 0.50
246, -22943.15, -1837.45, -21491.25, -187500.02, -187500.02, -187500.02, -187500.02, -187500.02, 0.00, 0.00, 0.00
247, -25315.65, -4088.85, -23757.27, -187500.02, -187500.02, -187500.02, -187500.02, -187500.02, 0.00, 0.00, 0.00
248, -24100.46, -3563.78, -23037.18, -187500.02, -187500.02, -187500.02, -187500.02, -187500.02, 0.00, 0.00, 0.00
249, -21534.45, -1379.44, -20761.06, -187500.02, -187500.02, -187500.02, -187500.02, -187500.02, 0.00, 0.00, 0.00
250, -22368.98, -1423.38, -21036.05, -187500.02, -187500.02, -187500.02, -187500.02, -187500.02, 0.04, -0.08, 0.50
251, -25131.94, -3828.79, -23527.18, -187500.02, -187500.02, -187500.02, -187500.02, -187500.02, 0.00, 0.00, 0.00
252, -24513.36, -3842.13, -23353.30, -187500.02, -187500.02, -187500.02, -187500.02, -187500.02, 0.00, 0.00, 0.00
253, -21875.14, -1735.10, -21111.29, -187500.02, -187500.02, -187500.02, -187500.02, -187500.02, 0.00, 0.00, 0.00
254, -21893.40, -1132.36, -20691.17, -187500.02, -187500.02, -187500.02, -187500.02, -187500.02, 0.00, 0.00, 0.00
255, -24848.37, -3508.93, -23218.63, -187500.02, -187500.02, -187500.02, -187500.02, -187500.02, 0.00, 0.00, 0.00
0, -24883.77, -4080.38, -23628.86, -187500.02, -187500.02, -187500.02, -187500.02, -187500.02, 0.05, -0.08, 0.50
1, -22315.71, -2147.58, -21529.85, -187500.02, -187500.02, -187500.02, -187500.02, -187500.02, 0.00, 0.00, 0.00
2, -21518.54, -946.17, -20455.42, -187500.02, -187500.02, -187500.02, -187500.02, -187500.02, 0.00, 0.00, 0.00
3, -24406.54, -3066.19, -22781.19, -187500.02, -187500.02, -187500.02, -187500.02, -187500.02, 0.00, 0.00, 0.00
4, -25142.11, -4198.82, -23788.83, -187500.02, -187500.02, -187500.02, -187500.02, -187500.02, 0.00, 0.00, 0.00
5, -22806.78, -2562.54, -21963.58, -187500.02, -187500.02, -187500.02, -187500.02, -187500.02, 0.04, -0.08, 0.51
6, -21308.07, -896.48, -20361.12, -187500.02, -187500.02, -187500.02, -187500.02, -187500.02, 0.00, 0.00, 0.00
7, -23883.44, -2594.21, -22301.43, -187500.02, -187500.02, -187500.02, -187500.02, -187500.02, 0.00, 0.00, 0.00
8, -25319.85, -4247.75, -23878.41, -187500.02, -187500.02, -187500.02, -187500.02, -187500.02, 0.00, 0.00, 0.00
9, -23330.50, -2983.24, -22412.29, -187500.02, -187500.02, -187500.02, -187500.02, -187500.02, 0.00, 0.00, 0.00
10, -21283.89, -1000.98, -20430.88, -187500.02, -187500.02, -187500.02, -187500.02, -187500.02, 0.04, -0.08, 0.51
11, -23290.38, -2100.66, -21786.96, -187500.02, -187500.02, -187500.02, -187500.02, -187500.02, 0.00, 0.00, 0.00
12, -25359.64, -4169.61, -23841.24, -187500.02, -187500.02, -187500.02, -187500.02, -187500.02, 0.00, 0.00, 0.00
13, -23823.96, -3352.31, -22819.90, -187500.02, -187500.02, -187500.02, -187500.02, -187500.02, 0.00, 0.00, 0.00
14, -21401.73, -1211.96, -20615.17, -187500.02, -187500.02, -187500.02, -187500.02, -187500.02, 0.00, 0.00, 0.00
15, -22695.04, -1653.18, -21299.29, -187500.02, -187500.02, -187500.02, -187500.02, -187500.02, 0.03, -0.07, 0.50
16, -25268.89, -4000.05, -23692.65, -187500.02, -187500.02, -187500.02, -187500.02, -187500.02, 0.00, 0.00, 0.00
17, -24290.89, -3697.96, -23190.92, -187500.02, -187500.02, -187500.02, -187500.02, -187500.02, 0.00, 0.00, 0.00
18, -21674.15, -1533.08, -20914.46, -187500.02, -187500.02, -187500.02, -187500.02, -187500.02, 0.00, 0.00, 0.00
19, -22158.31, -1292.87, -20888.67, -187500.02, -187500.02, -187500.02, -187500.02, -187500.02, 0.00, 0.00, 0.00
20, -25046.94, -3725.68, -23434.37, -187500.02, -187500.02, -187500.02, -187500.02, -187500.02, 0.03, -0.07, 0.50
21, -24693.49, -3969.24, -23498.25, -187500.02, -187500.02, -187500.02, -187500.02, -187500.02, 0.00, 0.00, 0.00
22, -22064.21, -1927.03, -21303.04, -187500.02, -187500.02, -187500.02, -187500.02, -187500.02, 0.00, 0.00, 0.00
23, -21711.70, -1037.86, -20579.96, -187500.02, -187500.02, -187500.02, -187500.02, -187500.02, 0.00, 0.00, 0.00
24, -24683.48, -3332.87, -23056.25, -187500.02, -187500.02, -187500.02, -187500.02, -187500.02, 0.00, 0.00, 0.00
25, -25035.54, -4167.33, -23740.70, -187500.02, -187500.02, -187500.02, -187500.02, -187500.02, 0.00, 0.00, 0.00
26, -22539.68, -2343.29, -21735.35, -187500.02, -187500.02, -187500.02, -187500.02, -187500.02, 0.02, -0.08, 0.50
27, -21424.44, -918.14, -20413.89, -187500.02, -187500.02, -187500.02, -187500.02, -187500.02, 0.00, 0.00, 0.00
28, -24198.11, -2867.33, -22590.37, -187500.02, -187500.02, -187500.02, -187500.02, -187500.02, 0.00, 0.00, 0.00
29, -25234.40, -4232.82, -23847.92, -187500.02, -187500.02, -187500.02, -187500.02, -187500.02, 0.00, 0.00, 0.00
30, -23038.57, -2754.27, -22169.80, -187500.02, -187500.02, -187500.02, -187500.02, -187500.02, 0.00, 0.00, 0.00
31, -21288.20, -941.59, -20389.84, -187500.02, -187500.02, -187500.02, -187500.02, -187500.02, 0.02, -0.08, 0.50
32, -23629.28, -2374.02, -22081.11, -187500.02, -187500.02, -187500.02, -187500.02, -187500.02, 0.00, 0.00, 0.00
33, -25365.59, -4234.74, -23890.35, -187500.02, -187500.02, -187500.02, -187500.02, -187500.02, 0.00, 0.00, 0.00
34, -23569.62, -3169.43, -22614.51, -187500.02, -187500.02, -187500.02, -187500.02, -187500.02, 0.00, 0.00, 0.00
35, -21329.13, -1093.27, -20506.52, -187500.02, -187500.02, -187500.02, -187500.02, -187500.02, 0.00, 0.00, 0.00
36, -23047.04, -1908.82, -21583.98, -187500.02, -187500.02, -187500.02, -187500.02, -187500.02, 0.02, -0.08, 0.51
37, -25351.82, -4119.69, -23805.52, -187500.02, -187500.02, -187500.02, -187500.02, -187500.02, 0.00, 0.00, 0.00
38, -24046.21, -3516.33, -23001.02, -187500.02, -187500.02, -187500.02, -187500.02, -187500.02, 0.00, 0.00, 0.00
39, -21527.57, -1360.13, -20756.66, -187500.02, -187500.02, -187500.02, -187500.02, -187500.02, 0.00, 0.00, 0.00
40, -22463.99, -1491.80, -21121.17, -187500.02, -187500.02, -187500.02, -187500.02, -187500.02, 0.00, 0.00, 0.00
41, -25198.48, -3895.93, -23604.42, -187500.02, -187500.02, -187500.02, -187500.02, -187500.02, 0.03, -0.08, 0.51
42, -24496.77, -3838.53, -23356.46, -187500.02, -187500.02, -187500.02, -187500.02, -187500.02, 0.00, 0.00, 0.00
43, -21851.98, -1710.27, -21096.11, -187500.02, -187500.02, -187500.02, -187500.02, -187500.02, 0.00, 0.00, 0.00
44, -21963.92, -1174.38, -20753.24, -187500.02, -187500.02, -187500.02, -187500.02, -187500.02, 0.00, 0.00, 0.00
45, -24899.60, -3558.51, -23280.88, -187500.02, -187500.02, -187500.02, -187500.02, -187500.02, 0.00, 0.00, 0.00
46, -24847.92, -4060.35, -23613.86, -187500.02, -187500.02, -187500.02, -187500.02, -187500.02, 0.03, -0.08, 0.51
47, -22273.00, -2108.51, -21496.92, -187500.02, -187500.02, -187500.02, -187500.02, -187500.02, 0.00, 0.00, 0.00
48, -21582.13, -979.65, -20506.47, -187500.02, -187500.02, -187500.02, -187500.02, -187500.02, 0.00, 0.00, 0.00
49, -24485.89, -3147.44, -22869.43, -187500.02, -187500.02, -187500.02, -187500.02, -187500.02, 0.00, 0.00, 0.00
50, -25133.80, -4215.20, -23806.06, -187500.02, -187500.02, -187500.02, -187500.02, -187500.02, 0.00, 0.00, 0.00
51, -22760.76, -2530.20, -21936.38, -187500.02, -187500.02, -187500.02, -187500.02, -187500.02, 0.00, 0.00, 0.00
52, -21353.60, -920.42, -20399.59, -187500.02, -187500.02, -187500.02, -187500.02, -187500.02, 0.03, -0.09, 0.01
53, -23971.28, -2671.91, -22391.06, -187500.02, -187500.02, -187500.02, -187500.02, -187500.02, 0.00, 0.00, 0.00
54, -25308.39, -4258.39, -23890.86, -187500.02, -187500.02, -187500.02, -187500.02, -187500.02, 0.00, 0.00, 0.00
55, -23275.68, -2949.33, -22379.95, -187500.02, -187500.02, -187500.02, -187500.02, -187500.02, 0.00, 0.00, 0.00
56, -21294.86, -1000.64, -20441.05, -187500.02, -187500.02, -187500.02, -187500.02, -187500.02, 0.00, 0.00, 0.00
57, -23375.07, -2174.96, -21869.82, -187500.02, -187500.02, -187500.02, -187500.02, -187500.02, 0.03, -0.08, 0.01
58, -25375.87, -4221.10, -23881.50, -187500.02, -187500.02, -187500.02, -187500.02, -187500.02, 0.00, 0.00, 0.00
59, -23783.75, -3342.35, -22804.08, -187500.02, -187500.02, -187500.02, -187500.02, -187500.02, 0.00, 0.00, 0.00
60, -21389.48, -1194.39, -20604.51, -187500.02, -187500.02, -187500.02, -187500.02, -187500.02, 0.00, 0.00, 0.00
61, -22782.93, -1721.55, -21380.87, -187500.02, -187500.02, -187500.02, -187500.02, -187500.02, 0.00, 0.00, 0.00
62, -25285.21, -4031.67, -23726.76, -187500.02, -187500.02, -187500.02, -187500.02, -187500.02, 0.03, -0.09, 0.51
63, -24237.09, -3660.46, -23160.90, -187500.02, -187500.02, -187500.02, -187500.02, -187500.02, 0.00, 0.00, 0.00
64, -21648.11, -1498.51, -20894.30, -187500.02, -187500.02, -187500.02, -187500.02, -187500.02, 0.00, 0.00, 0.00
65, -22244.12, -1347.97, -20963.74, -187500.02, -187500.02, -187500.02, -187500.02, -187500.02, 0.00, 0.00, 0.00
66, -25102.60, -3782.05, -23500.78, -187500.02, -187500.02, -187500.02, -187500.02, -187500.02, 0.00, 0.00, 0.00
67, -24670.13, -3953.29, -23495.53, -187500.02, -187500.02, -187500.02, -187500.02, -187500.02, 0.03, -0.09, 0.51
68, -22024.98, -1875.31, -21270.63, -187500.02, -187500.02, -187500.02, -187500.02, -187500.02, 0.00, 0.00, 0.00
69, -21780.84, -1067.05, -20633.43, -187500.02, -187500.02, -187500.02, -187500.02, -187500.02, 0.00, 0.00, 0.00
70, -24730.71, -3380.95, -23112.57, -187500.02, -187500.02, -187500.02, -187500.02, -187500.02, 0.00, 0.00, 0.00
71, -24985.94, -4134.33, -23713.26, -187500.02, -187500.02, -187500.02, -187500.02, -187500.02, 0.00, 0.00, 0.00
72, -22480.98, -2286.05, -21691.25, -187500.02, -187500.02, -187500.02, -187500.02, -187500.02, 0.03, -0.09, 0.00
73, -21458.37, -924.51, -20441.54, -187500.02, -187500.02, -187500.02, -187500.02, -187500.02, 0.00, 0.00, 0.00
74, -24266.95, -2922.60, -22662.37, -187500.02, -187500.02, -187500.02, -187500.02, -187500.02, 0.00, 0.00, 0.00
75, -25219.90, -4227.09, -23851.59, -187500.02, -187500.02, -187500.02, -187500.02, -187500.02, 0.00, 0.00, 0.00
76, -22989.10, -2707.49, -22136.36, -187500.02, -187500.02, -187500.02, -187500.02, -187500.02, 0.00, 0.00, 0.00
77, -21315.14, -936.29, -20409.13, -187500.02, -187500.02, -187500.02, -187500.02, -187500.02, 0.00, 0.00, 0.00
78, -23714.48, -2440.72, -22163.34, -187500.02, -187500.02, -187500.02, -187500.02, -187500.02, 0.04, -0.08, 0.51
79, -25345.92, -4240.08, -23895.78, -187500.02, -187500.02, -187500.02, -187500.02, -187500.02, 0.00, 0.00, 0.00
80, -23479.61, -3105.04, -22553.00, -187500.02, -187500.02, -187500.02, -187500.02, -187500.02, 0.00, 0.00, 0.00
81, -21302.98, -1057.44, -20484.79, -187500.02, -187500.02, -187500.02, -187500.02, -187500.02, 0.00, 0.00, 0.00
82, -23117.36, -1974.35, -21655.08, -187500.02, -187500.02, -187500.02, -187500.02, -187500.02, 0.00, 0.00, 0.00
83, -25361.34, -4159.68, -23839.19, -187500.02, -187500.02, -187500.02, -187500.02, -187500.02, 0.04, -0.08, 0.50
84, -23997.55, -3503.39, -22981.33, -187500.02, -187500.02, -187500.02, -187500.02, -187500.02, 0.00, 0.00, 0.00
85, -21492.92, -1334.22, -20734.46, -187500.02, -187500.02, -187500.02, -187500.02, -187500.02, 0.00, 0.00, 0.00
86, -22537.26, -1558.79, -21196.34, -187500.02, -187500.02, -187500.02, -187500.02, -187500.02, 0.00, 0.00, 0.00
87, -25215.43, -3942.71, -23644.19, -187500.02, -187500.02, -187500.02, -187500.02, -187500.02, 0.00, 0.00, 0.00
88, -24431.44, -3808.54, -23321.68, -187500.02, -187500.02, -187500.02, -187500.02, -187500.02, 0.03, -0.07, 0.51
89, -21789.17, -1664.06, -21049.20, -187500.02, -187500.02, -187500.02, -187500.02, -187500.02, 0.00, 0.00, 0.00
90, -22025.83, -1227.18, -20809.83, -187500.02, -187500.02, -187500.02, -187500.02, -187500.02, 0.00, 0.00, 0.00
91, -24946.76, -3625.27, -23342.26, -187500.02, -187500.02, -187500.02, -187500.02, -187500.02, 0.00, 0.00, 0.00
92, -24815.00, -4059.95, -23605.21, -187500.02, -187500.02, -187500.02, -187500.02, -187500.02, 0.00, 0.00, 0.00
93, -22221.46, -2076.75, -21463.40, -187500.02, -187500.02, -187500.02, -187500.02, -187500.02, 0.03, -0.08, 0.51
94, -21627.41, -1011.48, -20546.39, -187500.02, -187500.02, -187500.02, -187500.02, -187500.02, 0.00, 0.00, 0.00
95, -24547.74, -3215.66, -22943.55, -187500.02, -187500.02, -187500.02, -187500.02, -187500.02, 0.00, 0.00, 0.00
96, -25089.32, -4198.60, -23786.97, -187500.02, -187500.02, -187500.02, -187500.02, -187500.02, 0.00, 0.00, 0.00
97, -22699.34, -2496.22, -21897.65, -187500.02, -187500.02, -187500.02, -187500.02, -187500.02, 0.00, 0.00, 0.00
98, -21373.65, -938.93, -20422.61, -187500.02, -187500.02, -187500.02, -187500.02, -187500.02, 0.03, -0.08, 0.51
99, -24039.21, -2745.82, -22469.96, -187500.02, -187500.02, -187500.02, -187500.02, -187500.02, 0.00, 0.00, 0.00
100, -25301.21, -4279.40, -23911.78, -187500.02, -187500.02, -187500.02, -187500.02, -187500.02, 0.00, 0.00, 0.00
101, -23217.14, -2913.04, -22348.14, -187500.02, -187500.02, -187500.02, -187500.02, -187500.02, 0.00, 0.00, 0.00
102, -21303.76, -1002.12, -20453.46, -187500.02, -187500.02, -187500.02, -187500.02, -187500.02, 0.00, 0.00, 0.00
103, -23469.60, -2264.46, -21967.81, -187500.02, -187500.02, -187500.02, -187500.02, -187500.02, 0.00, 0.00, 0.00
104, -25375.58, -4234.47, -23903.36, -187500.02, -187500.02, -187500.02, -187500.02, -187500.02, 0.04, -0.09, 0.49
105, -23710.77, -3286.96, -22755.84, -187500.02, -187500.02, -187500.02, -187500.02, -187500.02, 0.00, 0.00, 0.00
106, -21367.31, -1170.47, -20589.98, -187500.02, -187500.02, -187500.02, -187500.02, -187500.02, 0.00, 0.00, 0.00
107, -22866.26, -1796.05, -21464.63, -187500.02, -187500.02, -187500.02, -187500.02, -187500.02, 0.00, 0.00, 0.00
108, -25328.79, -4092.58, -23792.54, -187500.02, -187500.02, -187500.02, -187500.02, -187500.02, 0.00, 0.00, 0.00
109, -24207.52, -3660.34, -23159.89, -187500.02, -187500.02, -187500.02, -187500.02, -187500.02, 0.04, -0.08, 0.49
110, -21620.95, -1480.56, -20881.42, -187500.02, -187500.02, -187500.02, -187500.02, -187500.02, 0.00, 0.00, 0.00
111, -22314.84, -1409.34, -21033.88, -187500.02, -187500.02, -187500.02, -187500.02, -187500.02, 0.00, 0.00, 0.00
112, -25122.44, -3822.80, -23539.85, -187500.02, -187500.02, -187500.02, -187500.02, -187500.02, 0.00, 0.00, 0.00
113, -24613.31, -3930.71, -23465.64, -187500.02, -187500.02, -187500.02, -187500.02, -187500.02, 0.00, 0.00, 0.00
114, -21975.99, -1843.30, -21238.34, -187500.02, -187500.02, -187500.02, -187500.02, -187500.02, 0.04, -0.08, 0.50
115, -21839.26, -1116.87, -20688.42, -187500.02, -187500.02, -187500.02, -187500.02, -187500.02, 0.00, 0.00, 0.00
116, -24789.63, -3460.32, -23188.35, -187500.02, -187500.02, -187500.02, -187500.02, -187500.02, 0.00, 0.00, 0.00
117, -24941.13, -4131.23, -23697.01, -187500.02, -187500.02, -187500.02, -187500.02, -187500.02, 0.00, 0.00, 0.00
118, -22427.49, -2259.78, -21657.07, -187500.02, -187500.02, -187500.02, -187500.02, -187500.02, 0.00, 0.00, 0.00
119, -21517.82, -988.55, -20500.33, -187500.02, -187500.02, -187500.02, -187500.02, -187500.02, 0.04, -0.08, 0.50
120, -24349.01, -3029.82, -22761.03, -187500.02, -187500.02, -187500.02, -187500.02, -187500.02, 0.00, 0.00, 0.00
121, -25189.99, -4248.89, -23855.95, -187500.02, -187500.02, -187500.02, -187500.02, -187500.02, 0.00, 0.00, 0.00
122, -22915.30, -2675.88, -22091.97, -187500.02, -187500.02, -187500.02, -187500.02, -187500.02, 0.00, 0.00, 0.00
123, -21321.75, -951.09, -20421.98, -187500.02, -187500.02, -187500.02, -187500.02, -187500.02, 0.00, 0.00, 0.00
124, -23795.53, -2540.30, -22256.46, -187500.02, -187500.02, -187500.02, -187500.02, -187500.02, 0.03, -0.07, 0.50
125, -25347.26, -4271.80, -23924.39, -187500.02, -187500.02, -187500.02, -187500.02, -187500.02, 0.00, 0.00, 0.00
126, -23437.30, -3082.31, -22534.29, -187500.02, -187500.02, -187500.02, -187500.02, -187500.02, 0.00, 0.00, 0.00
127, -21328.06, -1079.72, -20514.03, -187500.02, -187500.02, -187500.02, -187500.02, -187500.02, 0.00, 0.00, 0.00
128, -23219.01, -2071.16, -21758.55, -187500.02, -187500.02, -187500.02, -187500.02, -187500.02, 0.00, 0.00, 0.00
129, -25364.76, -4185.34, -23865.61, -187500.02, -187500.02, -187500.02, -187500.02, -187500.02, 0.00, 0.00, 0.00
130, -23921.35, -3444.74, -22929.71, -187500.02, -187500.02, -187500.02, -187500.02, -187500.02, 0.03, -0.07, 0.50
131, -21469.30, -1292.89, -20712.04, -187500.02, -187500.02, -187500.02, -187500.02, -187500.02, 0.00, 0.00, 0.00
132, -22622.09, -1615.05, -21272.69, -187500.02, -187500.02, -187500.02, -187500.02, -187500.02, 0.00, 0.00, 0.00
133, -25242.32, -3970.76, -23686.68, -187500.02, -187500.02, -187500.02, -187500.02, -187500.02, 0.00, 0.00, 0.00
134, -24370.80, -3750.82, -23279.68, -187500.02, -187500.02, -187500.02, -187500.02, -187500.02, 0.00, 0.00, 0.00
135, -21751.11, -1603.22, -21016.61, -187500.02, -187500.02, -187500.02, -187500.02, -187500.02, 0.03, -0.08, 0.50
136, -22087.28, -1248.57, -20863.45, -187500.02, -187500.02, -187500.02, -187500.02, -187500.02, 0.00, 0.00, 0.00
137, -24992.76, -3664.93, -23402.46, -187500.02, -187500.02, -187500.02, -187500.02, -187500.02, 0.00, 0.00, 0.00
138, -24764.55, -4007.33, -23575.59, -187500.02, -187500.02, -187500.02, -187500.02, -187500.02, 0.00, 0.00, 0.00
139, -22166.09, -2005.87, -21417.13, -187500.02, -187500.02, -187500.02, -187500.02, -187500.02, 0.00, 0.00, 0.00
140, -21685.48, -1033.57, -20594.38, -187500.02, -187500.02, -187500.02, -187500.02, -187500.02, 0.04, -0.07, 0.50
141, -24615.46, -3277.26, -23018.70, -187500.02, -187500.02, -187500.02, -187500.02, -187500.02, 0.00, 0.00, 0.00
142, -25076.80, -4191.65, -23792.74, -187500.02, -187500.02, -187500.02, -187500.02, -187500.02, 0.00, 0.00, 0.00
143, -22642.83, -2434.13, -21852.45, -187500.02, -187500.02, -187500.02, -187500.02, -187500.02, 0.00, 0.00, 0.00
144, -21411.92, -940.61, -20448.76, -187500.02, -187500.02, -187500.02, -187500.02, -187500.02, 0.00, 0.00, 0.00
145, -24113.96, -2804.45, -22543.32, -187500.02, -187500.02, -187500.02, -187500.02, -187500.02, 0.04, -0.08, 0.51
146, -25263.77, -4256.08, -23891.94, -187500.02, -187500.02, -187500.02, -187500.02, -187500.02, 0.00, 0.00, 0.00
147, -23136.47, -2841.49, -22282.36, -187500.02, -187500.02, -187500.02, -187500.02, -187500.02, 0.00, 0.00, 0.00
148, -21304.92, -982.00, -20448.02, -187500.02, -187500.02, -187500.02, -187500.02, -187500.02, 0.00, 0.00, 0.00
149, -23538.55, -2316.83, -22034.10, -187500.02, -187500.02, -187500.02, -187500.02, -187500.02, 0.00, 0.00, 0.00
150, -25361.63, -4234.56, -23908.54, -187500.02, -187500.02, -187500.02, -187500.02, -187500.02, 0.03, -0.08, 0.51
151, -23648.05, -3234.10, -22709.51, -187500.02, -187500.02, -187500.02, -187500.02, -187500.02, 0.00, 0.00, 0.00
152, -21368.24, -1152.72, -20587.72, -187500.02, -187500.02, -187500.02, -187500.02, -187500.02, 0.00, 0.00, 0.00
153, -22947.73, -1854.43, -21536.62, -187500.02, -187500.02, -187500.02, -187500.02, -187500.02, 0.00, 0.00, 0.00
154, -25321.17, -4096.90, -23796.13, -187500.02, -187500.02, -187500.02, -187500.02, -187500.02, 0.00, 0.00, 0.00
155, -24118.09, -3587.88, -23083.74, -187500.02, -187500.02, -187500.02, -187500.02, -187500.02, 0.00, 0.00, 0.00
156, -21581.55, -1434.67, -20834.20, -187500.02, -187500.02, -187500.02, -187500.02, -187500.02, 0.03, -0.08, 0.51
157, -22393.27, -1460.55, -21082.81, -187500.02, -187500.02, -187500.02, -187500.02, -187500.02, 0.00, 0.00, 0.00
158, -25153.13, -3857.96, -23561.02, -187500.02, -187500.02, -187500.02, -187500.02, -187500.02, 0.00, 0.00, 0.00
159, -24547.82, -3877.80, -23396.96, -187500.02, -187500.02, -187500.02, -187500.02, -187500.02, 0.00, 0.00, 0.00
160, -21926.21, -1789.41, -21168.78, -187500.02, -187500.02, -187500.02, -187500.02, -187500.02, 0.00, 0.00, 0.00
161, -21905.54, -1155.61, -20714.39, -187500.02, -187500.02, -187500.02, -187500.02, -187500.02, 0.03, -0.08, 0.50
162, -24839.87, -3510.83, -23216.55, -187500.02, -187500.02, -187500.02, -187500.02, -187500.02, 0.00, 0.00, 0.00
163, -24901.23, -4098.35, -23643.70, -187500.02, -187500.02, -187500.02, -187500.02, -187500.02, 0.00, 0.00, 0.00
164, -22351.99, -2183.07, -21560.40, -187500.02, -187500.02, -187500.02, -187500.02, -187500.02, 0.00, 0.00, 0.00
165, -21531.66, -969.60, -20468.74, -187500.02, -187500.02, -187500.02, -187500.02, -187500.02, 0.00, 0.00, 0.00
166, -24391.36, -3068.29, -22768.34, -187500.02, -187500.02, -187500.02, -187500.02, -187500.02, 0.03, -0.08, 0.51
167, -25158.34, -4228.26, -23802.28, -187500.02, -187500.02, -187500.02, -187500.02, -187500.02, 0.00, 0.00, 0.00
168, -22838.47, -2605.34, -21990.76, -187500.02, -187500.02, -187500.02, -187500.02, -187500.02, 0.00, 0.00, 0.00
169, -21320.19, -931.31, -20373.44, -187500.02, -187500.02, -187500.02, -187500.02, -187500.02, 0.00, 0.00, 0.00
170, -23853.89, -2589.38, -22273.85, -187500.02, -187500.02, -187500.02, -187500.02, -187500.02, 0.00, 0.00, 0.00
171, -25308.79, -4262.68, -23867.08, -187500.02, -187500.02, -187500.02, -187500.02, -187500.02, 0.03, -0.08, 0.00
172, -23341.77, -3016.77, -22421.93, -187500.02, -187500.02, -187500.02, -187500.02, -187500.02, 0.00, 0.00, 0.00
173, -21282.79, -1029.81, -20432.49, -187500.02, -187500.02, -187500.02, -187500.02, -187500.02, 0.00, 0.00, 0.00
174, -23258.35, -2110.59, -21762.78, -187500.02, -187500.02, -187500.02, -187500.02, -187500.02, 0.00, 0.00, 0.00
175, -25339.39, -4193.72, -23828.01, -187500.02, -187500.02, -187500.02, -187500.02, -187500.02, 0.00, 0.00, 0.00
176, -23839.19, -3404.13, -22837.18, -187500.02, -187500.02, -187500.02, -187500.02, -187500.02, 0.03, -0.07, 0.50
177, -21419.25, -1266.81, -20633.34, -187500.02, -187500.02, -187500.02, -187500.02, -187500.02, 0.00, 0.00, 0.00
178, -22676.78, -1676.56, -21283.62, -187500.02, -187500.02, -187500.02, -187500.02, -187500.02, 0.00, 0.00, 0.00
179, -25240.17, -4003.22, -23661.87, -187500.02, -187500.02, -187500.02, -187500.02, -187500.02, 0.00, 0.00, 0.00
180, -24279.49, -3711.78, -23172.95, -187500.02, -187500.02, -187500.02, -187500.02, -187500.02, 0.00, 0.00, 0.00
181, -21686.13, -1577.09, -20919.91, -187500.02, -187500.02, -187500.02, -187500.02, -187500.02, 0.00, 0.00, 0.00
182, -22131.67, -1306.03, -20859.92, -187500.02, -187500.02, -187500.02, -187500.02, -187500.02, 0.03, -0.07, 0.51
183, -25006.39, -3720.65, -23388.06, -187500.02, -187500.02, -187500.02, -187500.02, -187500.02, 0.00, 0.00, 0.00
184, -24679.66, -3984.49, -23475.16, -187500.02, -187500.02, -187500.02, -187500.02, -187500.02, 0.00, 0.00, 0.00
185, -22062.91, -1947.24, -21286.08, -187500.02, -187500.02, -187500.02, -187500.02, -187500.02, 0.00, 0.00, 0.00
186, -21697.17, -1056.75, -20553.46, -187500.02, -187500.02, -187500.02, -187500.02, -187500.02, 0.00, 0.00, 0.00
187, -24641.61, -3334.08, -23004.32, -187500.02, -187500.02, -187500.02, -187500.02, -187500.02, 0.03, -0.08, 0.00
188, -24991.35, -4156.69, -23680.73, -187500.02, -187500.02, -187500.02, -187500.02, -187500.02, 0.00, 0.00, 0.00
189, -22524.43, -2351.36, -21699.90, -187500.02, -187500.02, -187500.02, -187500.02, -187500.02, 0.00, 0.00, 0.00
190, -21399.25, -939.60, -20379.92, -187500.02, -187500.02, -187500.02, -187500.02, -187500.02, 0.00, 0.00, 0.00
191, -24152.56, -2866.32, -22533.29, -187500.02, -187500.02, -187500.02, -187500.02, -187500.02, 0.00, 0.00, 0.00
192, -25222.02, -4254.94, -23815.63, -187500.02, -187500.02, -187500.02, -187500.02, -187500.02, 0.03, -0.08, 0.51
193, -23045.34, -2786.06, -22153.13, -187500.02, -187500.02, -187500.02, -187500.02, -187500.02, 0.00, 0.00, 0.00
194, -21276.94, -958.31, -20357.28, -187500.02, -187500.02, -187500.02, -187500.02, -187500.02, 0.00, 0.00, 0.00
195, -23595.60, -2382.18, -22026.19, -187500.02, -187500.02, -187500.02, -187500.02, -187500.02, 0.00, 0.00, 0.00
196, -25321.51, -4235.77, -23826.78, -187500.02, -187500.02, -187500.02, -187500.02, -187500.02, 0.00, 0.00, 0.00
197, -23541.06, -3180.30, -22565.29, -187500.02, -187500.02, -187500.02, -187500.02, -187500.02, 0.03, -0.08, 0.51
198, -21318.98, -1122.84, -20478.69, -187500.02, -187500.02, -187500.02, -187500.02, -187500.02, 0.00, 0.00, 0.00
199, -23004.46, -1919.50, -21527.97, -187500.02, -187500.02, -187500.02, -187500.02, -187500.02, 0.00, 0.00, 0.00
200, -25306.06, -4122.31, -23740.28, -187500.02, -187500.02, -187500.02, -187500.02, -187500.02, 0.00, 0.00, 0.00
201, -24036.42, -3543.69, -22965.50, -187500.02, -187500.02, -187500.02, -187500.02, -187500.02, 0.00, 0.00, 0.00
202, -21512.35, -1388.24, -20719.31, -187500.02, -187500.02, -187500.02, -187500.02, -187500.02, 0.03, -0.08, 0.00
203, -22430.56, -1498.62, -21066.43, -187500.02, -187500.02, -187500.02, -187500.02, -187500.02, 0.00, 0.00, 0.00
204, -25159.90, -3890.41, -23537.44, -187500.02, -187500.02, -187500.02, -187500.02, -187500.02, 0.00, 0.00, 0.00
205, -24473.53, -3848.86, -23302.54, -187500.02, -187500.02, -187500.02, -187500.02, -187500.02, 0.00, 0.00, 0.00
206, -21834.84, -1725.69, -21046.58, -187500.02, -187500.02, -187500.02, -187500.02, -187500.02, 0.00, 0.00, 0.00
207, -21931.58, -1181.07, -20692.82, -187500.02, -187500.02, -187500.02, -187500.02, -187500.02, 0.00, 0.00, 0.00
208, -24866.00, -3557.21, -23213.56, -187500.02, -187500.02, -187500.02, -187500.02, -187500.02, 0.04, -0.08, 0.50
209, -24839.47, -4078.25, -23568.10, -187500.02, -187500.02, -187500.02, -187500.02, -187500.02, 0.00, 0.00, 0.00
210, -22272.19, -2135.53, -21460.67, -187500.02, -187500.02, -187500.02, -187500.02, -187500.02, 0.00, 0.00, 0.00
211, -21550.52, -983.41, -20443.15, -187500.02, -187500.02, -187500.02, -187500.02, -187500.02, 0.00, 0.00, 0.00
212, -24448.90, -3142.59, -22800.19, -187500.02, -187500.02, -187500.02, -187500.02, -187500.02, 0.00, 0.00, 0.00
213, -25123.76, -4232.57, -23755.66, -187500.02, -187500.02, -187500.02, -187500.02, -187500.02, 0.04, -0.07, 0.51
214, -22766.64, -2563.95, -21900.48, -187500.02, -187500.02, -187500.02, -187500.02, -187500.02, 0.00, 0.00, 0.00
215, -21341.40, -944.81, -20354.93, -187500.02, -187500.02, -187500.02, -187500.02, -187500.02, 0.00, 0.00, 0.00
216, -23929.42, -2664.35, -22312.99, -187500.02, -187500.02, -187500.02, -187500.02, -187500.02, 0.00, 0.00, 0.00
217, -25304.45, -4279.87, -23843.07, -187500.02, -187500.02, -187500.02, -187500.02, -187500.02, 0.00, 0.00, 0.00
218, -23284.48, -2982.44, -22345.02, -187500.02, -187500.02, -187500.02, -187500.02, -187500.02, 0.04, -0.08, 0.50
219, -21289.07, -1025.63, -20397.08, -187500.02, -187500.02, -187500.02, -187500.02, -187500.02, 0.00, 0.00, 0.00
220, -23354.78, -2185.51, -21811.19, -187500.02, -187500.02, -187500.02, -187500.02, -187500.02, 0.00, 0.00, 0.00
221, -25351.55, -4211.38, -23809.08, -187500.02, -187500.02, -187500.02, -187500.02, -187500.02, 0.00, 0.00, 0.00
222, -23773.74, -3351.91, -22745.54, -187500.02, -187500.02, -187500.02, -187500.02, -187500.02, 0.00, 0.00, 0.00
223, -21398.17, -1227.92, -20565.97, -187500.02, -187500.02, -187500.02, -187500.02, -187500.02, 0.04, -0.08, 0.50
224, -22768.85, -1734.34, -21319.29, -187500.02, -187500.02, -187500.02, -187500.02, -187500.02, 0.00, 0.00, 0.00
225, -25278.82, -4044.64, -23667.88, -187500.02, -187500.02, -187500.02, -187500.02, -187500.02, 0.00, 0.00, 0.00
226, -24246.19, -3685.40, -23115.26, -187500.02, -187500.02, -187500.02, -187500.02, -187500.02, 0.00, 0.00, 0.00
227, -21654.08, -1526.78, -20847.85, -187500.02, -187500.02, -187500.02, -187500.02, -187500.02, 0.00, 0.00, 0.00
228, -22230.75, -1361.31, -20900.00, -187500.02, -187500.02, -187500.02, -187500.02, -187500.02, 0.04, -0.07, 0.50
229, -25067.01, -3762.94, -23410.48, -187500.02, -187500.02, -187500.02, -187500.02, -187500.02, 0.00, 0.00, 0.00
230, -24644.65, -3942.36, -23409.29, -187500.02, -187500.02, -187500.02, -187500.02, -187500.02, 0.00, 0.00, 0.00
231, -22026.10, -1892.10, -21211.18, -187500.02, -187500.02, -187500.02, -187500.02, -187500.02, 0.00, 0.00, 0.00
232, -21768.59, -1075.07, -20565.57, -187500.02, -187500.02, -187500.02, -187500.02, -187500.02, 0.00, 0.00, 0.00
233, -24712.91, -3373.53, -23036.29, -187500.02, -187500.02, -187500.02, -187500.02, -187500.02, 0.00, 0.00, 0.00
234, -24985.92, -4138.40, -23649.62, -187500.02, -187500.02, -187500.02, -187500.02, -187500.02, 0.04, -0.07, 0.50
235, -22493.48, -2306.23, -21640.76, -187500.02, -187500.02, -187500.02, -187500.02, -187500.02, 0.00, 0.00, 0.00
236, -21449.72, -934.95, -20377.26, -187500.02, -187500.02, -187500.02, -187500.02, -187500.02, 0.00, 0.00, 0.00
237, -24236.53, -2919.85, -22578.75, -187500.02, -187500.02, -187500.02, -187500.02, -187500.02, 0.00, 0.00, 0.00
238, -25204.92, -4232.66, -23776.76, -187500.02, -187500.02, -187500.02, -187500.02, -187500.02, 0.00, 0.00, 0.00
239, -22985.68, -2714.53, -22069.35, -187500.02, -187500.02, -187500.02, -187500.02, -187500.02, 0.03, -0.07, 0.50
240, -21308.19, -950.49, -20345.72, -187500.02, -187500.02, -187500.02, -187500.02, -187500.02, 0.00, 0.00, 0.00
241, -23687.37, -2435.24, -22080.59, -187500.02, -187500.02, -187500.02, -187500.02, -187500.02, 0.00, 0.00, 0.00
242, -25342.94, -4243.75, -23828.32, -187500.02, -187500.02, -187500.02, -187500.02, -187500.02, 0.00, 0.00, 0.00
243, -23500.82, -3118.52, -22503.11, -187500.02, -187500.02, -187500.02, -187500.02, -187500.02, 0.00, 0.00, 0.00
244, -21318.27, -1075.01, -20435.71, -187500.02, -187500.02, -187500.02, -187500.02, -187500.02, 0.03, -0.07, 0.51
245, -23092.90, -1956.47, -21569.14, -187500.02, -187500.02, -187500.02, -187500.02, -187500.02, 0.00, 0.00, 0.00
246, -25317.15, -4119.36, -23729.57, -187500.02, -187500.02, -187500.02, -187500.02, -187500.02, 0.00, 0.00, 0.00
247, -23980.65, -3486.13, -22895.34, -187500.02, -187500.02, -187500.02, -187500.02, -187500.02, 0.00, 0.00, 0.00
248, -21496.99, -1336.25, -20668.63, -187500.02, -187500.02, -187500.02, -187500.02, -187500.02, 0.00, 0.00, 0.00
249, -22521.91, -1549.87, -21113.26, -187500.02, -187500.02, -187500.02, -187500.02, -187500.02, 0.03, -0.07, 0.50
250, -25216.16, -3946.63, -23577.00, -187500.02, -187500.02, -187500.02, -187500.02, -187500.02, 0.00, 0.00, 0.00
251, -24441.50, -3808.16, -23258.82, -187500.02, -187500.02, -187500.02, -187500.02, -187500.02, 0.00, 0.00, 0.00
252, -21817.83, -1681.70, -21005.21, -187500.02, -187500.02, -187500.02, -187500.02, -187500.02, 0.00, 0.00, 0.00
253, -22010.23, -1210.39, -20730.28, -187500.02, -187500.02, -187500.02, -187500.02, -187500.02, 0.00, 0.00, 0.00
254, -24926.31, -3598.21, -23253.88, -187500.02, -187500.02, -187500.02, -187500.02, -187500.02, 0.03, -0.08, 0.50
255, -24805.21, -4036.59, -23523.27, -187500.02, -187500.02, -187500.02, -187500.02, -187500.02, 0.00, 0.00, 0.00
0, -22228.14, -2070.55, -21398.58, -187500.02, -187500.02, -187500.02, -187500.02, -187500.02, 0.00, 0.00, 0.00
1, -21614.76, -1003.08, -20469.82, -187500.02, -187500.02, -187500.02, -187500.02, -187500.02, 0.00, 0.00, 0.00
2, -24525.50, -3191.58, -22850.66, -187500.02, -187500.02, -187500.02, -187500.02, -187500.02, 0.00, 0.00, 0.00
3, -25114.53, -4208.43, -23732.97, -187500.02, -187500.02, -187500.02, -187500.02, -187500.02, 0.00, 0.00, 0.00
4, -22726.16, -2508.38, -21844.96, -187500.02, -187500.02, -187500.02, -187500.02, -187500.02, 0.03, -0.08, 0.51
5, -21373.86, -932.00, -20347.91, -187500.02, -187500.02, -187500.02, -187500.02, -187500.02, 0.00, 0.00, 0.00
6, -24009.62, -2716.09, -22365.58, -187500.02, -187500.02, -187500.02, -187500.02, -187500.02, 0.00, 0.00, 0.00
7, -25274.95, -4245.07, -23803.98, -187500.02, -187500.02, -187500.02, -187500.02, -187500.02, 0.00, 0.00, 0.00
8, -23202.05, -2887.09, -22248.52, -187500.02, -187500.02, -187500.02, -187500.02, -187500.02, 0.00, 0.00, 0.00
9, -21288.78, -988.71, -20360.56, -187500.02, -187500.02, -187500.02, -187500.02, -187500.02, 0.04, -0.08, 0.00
10, -23426.57, -2226.28, -21848.99, -187500.02, -187500.02, -187500.02, -187500.02, -187500.02, 0.00, 0.00, 0.00
11, -25350.52, -4209.97, -23797.95, -187500.02, -187500.02, -187500.02, -187500.02, -187500.02, 0.00, 0.00, 0.00
12, -23717.70, -3296.55, -22682.21, -187500.02, -187500.02, -187500.02, -187500.02, -187500.02, 0.00, 0.00, 0.00
13, -21376.67, -1185.02, -20521.67, -187500.02, -187500.02, -187500.02, -187500.02, -187500.02, 0.00, 0.00, 0.00
14, -22831.93, -1770.24, -21352.71, -187500.02, -187500.02, -187500.02, -187500.02, -187500.02, 0.03, -0.08, 0.51
15, -25288.14, -4055.46, -23672.33, -187500.02, -187500.02, -187500.02, -187500.02, -187500.02, 0.00, 0.00, 0.00
16, -24182.78, -3632.85, -23052.98, -187500.02, -187500.02, -187500.02, -187500.02, -187500.02, 0.00, 0.00, 0.00
17, -21622.34, -1477.70, -20800.06, -187500.02, -187500.02, -187500.02, -187500.02, -187500.02, 0.00, 0.00, 0.00
18, -22298.97, -1396.94, -20939.72, -187500.02, -187500.02, -187500.02, -187500.02, -187500.02, 0.00, 0.00, 0.00
19, -25101.70, -3806.03, -23442.49, -187500.02, -187500.02, -187500.02, -187500.02, -187500.02, 0.04, -0.08, 0.50
20, -24610.88, -3924.54, -23382.03, -187500.02, -187500.02, -187500.02, -187500.02, -187500.02, 0.00, 0.00, 0.00
21, -21990.88, -1860.51, -21172.40, -187500.02, -187500.02, -187500.02, -187500.02, -187500.02, 0.00, 0.00, 0.00
22, -21819.30, -1116.56, -20596.84, -187500.02, -187500.02, -187500.02, -187500.02, -187500.02, 0.00, 0.00, 0.00
23, -24761.64, -3435.17, -23083.36, -187500.02, -187500.02, -187500.02, -187500.02, -187500.02, 0.00, 0.00, 0.00
24, -24939.70, -4111.18, -23612.70, -187500.02, -187500.02, -187500.02, -187500.02, -187500.02, 0.03, -0.08, 0.50
25, -22438.45, -2257.77, -21587.27, -187500.02, -187500.02, -187500.02, -187500.02, -187500.02, 0.00, 0.00, 0.00
26, -21496.61, -963.23, -20402.69, -187500.02, -187500.02, -187500.02, -187500.02, -187500.02, 0.00, 0.00, 0.00
27, -24318.50, -2994.84, -22649.11, -187500.02, -187500.02, -187500.02, -187500.02, -187500.02, 0.00, 0.00, 0.00
28, -25201.59, -4240.89, -23779.89, -187500.02, -187500.02, -187500.02, -187500.02, -187500.02, 0.00, 0.00, 0.00
29, -22941.36, -2679.42, -22030.93, -187500.02, -187500.02, -187500.02, -187500.02, -187500.02, 0.00, 0.00, 0.00
30, -21328.91, -942.06, -20343.62, -187500.02, -187500.02, -187500.02, -187500.02, -187500.02, 0.03, -0.08, 0.50
31, -23777.88, -2501.05, -22150.13, -187500.02, -187500.02, -187500.02, -187500.02, -187500.02, 0.00, 0.00, 0.00
32, -25333.94, -4240.08, -23819.31, -187500.02, -187500.02, -187500.02, -187500.02, -187500.02, 0.00, 0.00, 0.00
33, -23431.82, -3062.99, -22437.93, -187500.02, -187500.02, -187500.02, -187500.02, -187500.02, 0.00, 0.00, 0.00
34, -21317.95, -1060.17, -20420.31, -187500.02, -187500.02, -187500.02, -187500.02, -187500.02, 0.00, 0.00, 0.00
35, -23188.53, -2033.14, -21645.25, -187500.02, -187500.02, -187500.02, -187500.02, -187500.02, 0.03, -0.07, 0.50
36, -25363.11, -4167.28, -23772.98, -187500.02, -187500.02, -187500.02, -187500.02, -187500.02, 0.00, 0.00, 0.00
37, -23947.12, -3454.73, -22861.77, -187500.02, -187500.02, -187500.02, -187500.02, -187500.02, 0.00, 0.00, 0.00
38, -21475.94, -1304.63, -20635.06, -187500.02, -187500.02, -187500.02, -187500.02, -187500.02, 0.00, 0.00, 0.00
39, -22591.55, -1591.33, -21159.64, -187500.02, -187500.02, -187500.02, -187500.02, -187500.02, 0.00, 0.00, 0.00
40, -25218.27, -3943.43, -23574.03, -187500.02, -187500.02, -187500.02, -187500.02, -187500.02, 0.04, -0.08, 0.51
41, -24370.91, -3750.53, -23190.63, -187500.02, -187500.02, -187500.02, -187500.02, -187500.02, 0.00, 0.00, 0.00
42, -21756.67, -1618.42, -20936.95, -187500.02, -187500.02, -187500.02, -187500.02, -187500.02, 0.00, 0.00, 0.00
43, -22077.02, -1251.97, -20769.87, -187500.02, -187500.02, -187500.02, -187500.02, -187500.02, 0.00, 0.00, 0.00
44, -24971.28, -3644.47, -23289.67, -187500.02, -187500.02, -187500.02, -187500.02, -187500.02, 0.00, 0.00, 0.00
45, -24770.67, -4012.79, -23487.90, -187500.02, -187500.02, -187500.02, -187500.02, -187500.02, 0.03, -0.08, 0.00
46, -22177.18, -2023.82, -21338.20, -187500.02, -187500.02, -187500.02, -187500.02, -187500.02, 0.00, 0.00, 0.00
47, -21658.15, -1024.11, -20485.11, -187500.02, -187500.02, -187500.02, -187500.02, -187500.02, 0.00, 0.00, 0.00
48, -24585.11, -3249.05, -22898.29, -187500.02, -187500.02, -187500.02, -187500.02, -187500.02, 0.00, 0.00, 0.00
49, -25064.35, -4180.92, -23688.20, -187500.02, -187500.02, -187500.02, -187500.02, -187500.02, 0.00, 0.00, 0.00
50, -22640.15, -2434.51, -21760.65, -187500.02, -187500.02, -187500.02, -187500.02, -187500.02, 0.03, -0.08, 0.51
51, -21395.51, -933.59, -20348.80, -187500.02, -187500.02, -187500.02, -187500.02, -187500.02, 0.00, 0.00, 0.00
52, -24088.41, -2785.50, -22430.24, -187500.02, -187500.02, -187500.02, -187500.02, -187500.02, 0.00, 0.00, 0.00
53, -25283.60, -4268.74, -23817.19, -187500.02, -187500.02, -187500.02, -187500.02, -187500.02, 0.00, 0.00, 0.00
54, -23163.25, -2853.54, -22212.36, -187500.02, -187500.02, -187500.02, -187500.02, -187500.02, 0.00, 0.00, 0.00
55, -21293.79, -968.17, -20347.57, -187500.02, -187500.02, -187500.02, -187500.02, -187500.02, 0.00, 0.00, 0.00
56, -23516.83, -2295.57, -21920.00, -187500.02, -187500.02, -187500.02, -187500.02, -187500.02, 0.02, -0.08, 0.50
57, -25350.65, -4215.92, -23799.09, -187500.02, -187500.02, -187500.02, -187500.02, -187500.02, 0.00, 0.00, 0.00
58, -23651.77, -3235.17, -22614.76, -187500.02, -187500.02, -187500.02, -187500.02, -187500.02, 0.00, 0.00, 0.00
59, -21361.05, -1152.48, -20486.94, -187500.02, -187500.02, -187500.02, -187500.02, -187500.02, 0.00, 0.00, 0.00
60, -22921.06, -1829.15, -21416.81, -187500.02, -187500.02, -187500.02, -187500.02, -187500.02, 0.00, 0.00, 0.00
61, -25319.43, -4087.60, -23697.97, -187500.02, -187500.02, -187500.02, -187500.02, -187500.02, 0.03, -0.08, 0.50
62, -24135.21, -3596.64, -23007.37, -187500.02, -187500.02, -187500.02, -187500.02, -187500.02, 0.00, 0.00, 0.00
63, -21585.48, -1432.95, -20754.15, -187500.02, -187500.02, -187500.02, -187500.02, -187500.02, 0.00, 0.00, 0.00
64, -22350.38, -1424.52, -20970.52, -187500.02, -187500.02, -187500.02, -187500.02, -187500.02, 0.00, 0.00, 0.00
65, -25122.58, -3826.84, -23461.64, -187500.02, -187500.02, -187500.02, -187500.02, -187500.02, 0.00, 0.00, 0.00
66, -24552.41, -3869.35, -23328.65, -187500.02, -187500.02, -187500.02, -187500.02, -187500.02, 0.03, -0.08, 0.50
67, -21934.19, -1788.97, -21110.08, -187500.02, -187500.02, -187500.02, -187500.02, -187500.02, 0.00, 0.00, 0.00
68, -21871.20, -1118.77, -20622.46, -187500.02, -187500.02, -187500.02, -187500.02, -187500.02, 0.00, 0.00, 0.00
69, -24810.35, -3466.33, -23122.54, -187500.02, -187500.02, -187500.02, -187500.02, -187500.02, 0.00, 0.00, 0.00
70, -24910.50, -4085.16, -23585.63, -187500.02, -187500.02, -187500.02, -187500.02, -187500.02, 0.00, 0.00, 0.00
71, -22368.44, -2185.64, -21516.06, -187500.02, -187500.02, -187500.02, -187500.02, -187500.02, 0.03, -0.08, 0.50
72, -21520.21, -953.28, -20405.24, -187500.02, -187500.02, -187500.02, -187500.02, -187500.02, 0.00, 0.00, 0.00
73, -24365.93, -3031.48, -22690.93, -187500.02, -187500.02, -187500.02, -187500.02, -187500.02, 0.00, 0.00, 0.00
74, -25154.74, -4203.51, -23741.46, -187500.02, -187500.02, -187500.02, -187500.02, -187500.02, 0.00, 0.00, 0.00
75, -22870.46, -2621.50, -21966.82, -187500.02, -187500.02, -187500.02, -187500.02, -187500.02, 0.00, 0.00, 0.00
76, -21331.05, -934.88, -20334.88, -187500.02, -187500.02, -187500.02, -187500.02, -187500.02, 0.03, -0.08, 0.50
77, -23837.17, -2569.80, -22204.89, -187500.02, -187500.02, -187500.02, -187500.02, -187500.02, 0.00, 0.00, 0.00
78, -25329.87, -4264.11, -23826.09, -187500.02, -187500.02, -187500.02, -187500.02, -187500.02, 0.00, 0.00, 0.00
79, -23383.14, -3030.07, -22399.15, -187500.02, -187500.02, -187500.02, -187500.02, -187500.02, 0.00, 0.00, 0.00
80, -21314.31, -1044.92, -20405.44, -187500.02, -187500.02, -187500.02, -187500.02, -187500.02, 0.00, 0.00, 0.00
81, -23254.55, -2085.24, -21696.21, -187500.02, -187500.02, -187500.02, -187500.02, -187500.02, 0.00, 0.00, 0.00
82, -25347.37, -4166.05, -23763.46, -187500.02, -187500.02, -187500.02, -187500.02, -187500.02, 0.04, -0.08, 0.50
83, -23868.22, -3396.12, -22792.77, -187500.02, -187500.02, -187500.02, -187500.02, -187500.02, 0.00, 0.00, 0.00
84, -21442.59, -1264.30, -20593.69, -187500.02, -187500.02, -187500.02, -187500.02, -187500.02, 0.00, 0.00, 0.00
85, -22661.14, -1634.05, -21208.38, -187500.02, -187500.02, -187500.02, -187500.02, -187500.02, 0.00, 0.00, 0.00
86, -25252.33, -3980.89, -23606.48, -187500.02, -187500.02, -187500.02, -187500.02, -187500.02, 0.00, 0.00, 0.00
87, -24335.44, -3733.81, -23163.71, -187500.02, -187500.02, -187500.02, -187500.02, -187500.02, 0.03, -0.08, 0.51
88, -21722.61, -1582.37, -20900.38, -187500.02, -187500.02, -187500.02, -187500.02, -187500.02, 0.00, 0.00, 0.00
89, -22130.86, -1278.47, -20804.69, -187500.02, -187500.02, -187500.02, -187500.02, -187500.02, 0.00, 0.00, 0.00
90, -25006.28, -3682.25, -23323.46, -187500.02, -187500.02, -187500.02, -187500.02, -187500.02, 0.00, 0.00, 0.00
91, -24719.87, -3982.70, -23448.70, -187500.02, -187500.02, -187500.02, -187500.02, -187500.02, 0.00, 0.00, 0.00
92, -22115.13, -1969.99, -21282.53, -187500.02, -187500.02, -187500.02, -187500.02, -187500.02, 0.03, -0.08, 0.51
93, -21699.45, -1037.01, -20509.31, -187500.02, -187500.02, -187500.02, -187500.02, -187500.02, 0.00, 0.00, 0.00
94, -24634.26, -3293.17, -22945.00, -187500.02, -187500.02, -187500.02, -187500.02, -187500.02, 0.00, 0.00, 0.00
95, -25035.05, -4161.51, -23669.60, -187500.02, -187500.02, -187500.02, -187500.02, -187500.02, 0.00, 0.00, 0.00
96, -22586.33, -2384.95, -21711.72, -187500.02, -187500.02, -187500.02, -187500.02, -187500.02, 0.00, 0.00, 0.00
97, -21420.66, -938.19, -20356.67, -187500.02, -187500.02, -187500.02, -187500.02, -187500.02, 0.03, -0.08, 0.51
98, -24153.32, -2847.21, -22487.91, -187500.02, -187500.02, -187500.02, -187500.02, -187500.02, 0.00, 0.00, 0.00
99, -25245.56, -4248.95, -23789.10, -187500.02, -187500.02, -187500.02, -187500.02, -187500.02, 0.00, 0.00, 0.00
100, -23091.45, -2805.93, -22152.95, -187500.02, -187500.02, -187500.02, -187500.02, -187500.02, 0.00, 0.00, 0.00
101, -21298.28, -973.53, -20345.38, -187500.02, -187500.02, -187500.02, -187500.02, -187500.02, 0.00, 0.00, 0.00
102, -23572.82, -2356.37, -21973.62, -187500.02, -187500.02, -187500.02, -187500.02, -187500.02, 0.04, -0.08, 0.51
103, -25339.41, -4236.80, -23808.27, -187500.02, -187500.02, -187500.02, -187500.02, -187500.02, 0.00, 0.00, 0.00
104, -23585.20, -3200.52, -22574.93, -187500.02, -187500.02, -187500.02, -187500.02, -187500.02, 0.00, 0.00, 0.00
105, -21326.74, -1125.10, -20463.54, -187500.02, -187500.02, -187500.02, -187500.02, -187500.02, 0.00, 0.00, 0.00
106, -22964.85, -1878.93, -21468.22, -187500.02, -187500.02, -187500.02, -187500.02, -187500.02, 0.00, 0.00, 0.00
107, -25302.51, -4103.76, -23708.99, -187500.02, -187500.02, -187500.02, -187500.02, -187500.02, 0.00, 0.00, 0.00
108, -24048.15, -3542.08, -22951.62, -187500.02, -187500.02, -187500.02, -187500.02, -187500.02, 0.04, -0.08, 0.50
109, -21517.60, -1391.53, -20708.76, -187500.02, -187500.02, -187500.02, -187500.02, -187500.02, 0.00, 0.00, 0.00
110, -22396.58, -1475.06, -21020.83, -187500.02, -187500.02, -187500.02, -187500.02, -187500.02, 0.00, 0.00, 0.00
111, -25142.63, -3877.49, -23500.11, -187500.02, -187500.02, -187500.02, -187500.02, -187500.02, 0.00, 0.00, 0.00
112, -24492.53, -3862.43, -23297.80, -187500.02, -187500.02, -187500.02, -187500.02, -187500.02, 0.00, 0.00, 0.00
113, -21867.11, -1757.00, -21062.14, -187500.02, -187500.02, -187500.02, -187500.02, -187500.02, 0.04, -0.08, 0.50
114, -21908.31, -1169.26, -20660.88, -187500.02, -187500.02, -187500.02, -187500.02, -187500.02, 0.00, 0.00, 0.00
115, -24837.75, -3538.71, -23172.34, -187500.02, -187500.02, -187500.02, -187500.02, -187500.02, 0.00, 0.00, 0.00
116, -24833.41, -4063.61, -23541.55, -187500.02, -187500.02, -187500.02, -187500.02, -187500.02, 0.00, 0.00, 0.00
117, -22277.78, -2135.78, -21448.26, -187500.02, -187500.02, -187500.02, -187500.02, -187500.02, 0.00, 0.00, 0.00
118, -21520.95, -967.18, -20405.09, -187500.02, -187500.02, -187500.02, -187500.02, -187500.02, 0.04, -0.08, 0.51
119, -24414.85, -3111.79, -22748.29, -187500.02, -187500.02, -187500.02, -187500.02, -187500.02, 0.00, 0.00, 0.00
120, -25119.18, -4219.20, -23728.79, -187500.02, -187500.02, -187500.02, -187500.02, -187500.02, 0.00, 0.00, 0.00
121, -22774.97, -2562.09, -21886.20, -187500.02, -187500.02, -187500.02, -187500.02, -187500.02, 0.00, 0.00, 0.00
122, -21302.60, -913.31, -20299.76, -187500.02, -187500.02, -187500.02, -187500.02, -187500.02, 0.00, 0.00, 0.00
123, -23874.66, -2612.45, -22237.62, -187500.02, -187500.02, -187500.02, -187500.02, -187500.02, 0.04, -0.08, 0.51
124, -25273.47, -4240.08, -23785.65, -187500.02, -187500.02, -187500.02, -187500.02, -187500.02, 0.00, 0.00, 0.00
125, -23277.11, -2962.34, -22311.71, -187500.02, -187500.02, -187500.02, -187500.02, -187500.02, 0.00, 0.00, 0.00
126, -21261.56, -1002.95, -20351.80, -187500.02, -187500.02, -187500.02, -187500.02, -187500.02, 0.00, 0.00, 0.00
127, -23289.94, -2128.22, -21730.72, -187500.02, -187500.02, -187500.02, -187500.02, -187500.02, 0.00, 0.00, 0.00
128, -25331.70, -4192.87, -23769.94, -187500.02, -187500.02, -187500.02, -187500.02, -187500.02, 0.03, -0.09, 0.51
129, -23787.87, -3359.00, -22735.37, -187500.02, -187500.02, -187500.02, -187500.02, -187500.02, 0.00, 0.00, 0.00
130, -21397.35, -1227.42, -20547.89, -187500.02, -187500.02, -187500.02, -187500.02, -187500.02, 0.00, 0.00, 0.00
131, -22713.60, -1690.95, -21253.24, -187500.02, -187500.02, -187500.02, -187500.02, -187500.02, 0.00, 0.00, 0.00
132, -25243.23, -4008.20, -23613.83, -187500.02, -187500.02, -187500.02, -187500.02, -187500.02, 0.00, 0.00, 0.00
133, -24237.54, -3678.29, -23087.27, -187500.02, -187500.02, -187500.02, -187500.02, -187500.02, 0.00, 0.00, 0.00
134, -21647.44, -1532.15, -20830.46, -187500.02, -187500.02, -187500.02, -187500.02, -187500.02, 0.02, -0.08, 0.51
135, -22172.19, -1332.30, -20839.74, -187500.02, -187500.02, -187500.02, -187500.02, -187500.02, 0.00, 0.00, 0.00
136, -25027.83, -3738.87, -23358.73, -187500.02, -187500.02, -187500.02, -187500.02, -187500.02, 0.00, 0.00, 0.00
137, -24662.53, -3969.54, -23414.28, -187500.02, -187500.02, -187500.02, -187500.02, -187500.02, 0.00, 0.00, 0.00
138, -22026.73, -1909.31, -21204.79, -187500.02, -187500.02, -187500.02, -187500.02, -187500.02, 0.00, 0.00, 0.00
139, -21725.07, -1063.47, -20523.91, -187500.02, -187500.02, -187500.02, -187500.02, -187500.02, 0.03, -0.09, 0.50
140, -24671.70, -3354.04, -22990.11, -187500.02, -187500.02, -187500.02, -187500.02, -187500.02, 0.00, 0.00, 0.00
141, -24967.88, -4127.34, -23620.81, -187500.02, -187500.02, -187500.02, -187500.02, -187500.02, 0.00, 0.00, 0.00
142, -22499.87, -2324.63, -21638.30, -187500.02, -187500.02, -187500.02, -187500.02, -187500.02, 0.00, 0.00, 0.00
143, -21426.09, -939.38, -20352.02, -187500.02, -187500.02, -187500.02, -187500.02, -187500.02, 0.00, 0.00, 0.00
144, -24214.58, -2911.56, -22547.97, -187500.02, -187500.02, -187500.02, -187500.02, -187500.02, 0.03, -0.08, 0.50
145, -25223.83, -4258.92, -23786.97, -187500.02, -187500.02, -187500.02, -187500.02, -187500.02, 0.00, 0.00, 0.00
146, -23009.69, -2756.62, -22090.09, -187500.02, -187500.02, -187500.02, -187500.02, -187500.02, 0.00, 0.00, 0.00
147, -21285.43, -954.91, -20324.28, -187500.02, -187500.02, -187500.02, -187500.02, -187500.02, 0.00, 0.00, 0.00
148, -23662.27, -2431.47, -22051.09, -187500.02, -187500.02, -187500.02, -187500.02, -187500.02, 0.00, 0.00, 0.00
149, -25335.61, -4247.43, -23808.52, -187500.02, -187500.02, -187500.02, -187500.02, -187500.02, 0.03, -0.09, 0.51
150, -23501.49, -3137.40, -22496.49, -187500.02, -187500.02, -187500.02, -187500.02, -187500.02, 0.00, 0.00, 0.00
151, -21306.22, -1088.08, -20422.79, -187500.02, -187500.02, -187500.02, -187500.02, -187500.02, 0.00, 0.00, 0.00
152, -23057.32, -1944.53, -21531.90, -187500.02, -187500.02, -187500.02, -187500.02, -187500.02, 0.00, 0.00, 0.00
153, -25331.50, -4140.39, -23731.79, -187500.02, -187500.02, -187500.02, -187500.02, -187500.02, 0.00, 0.00, 0.00
154, -24004.92, -3517.74, -22905.55, -187500.02, -187500.02, -187500.02, -187500.02, -187500.02, 0.03, -0.08, 0.50
155, -21492.88, -1353.53, -20659.22, -187500.02, -187500.02, -187500.02, -187500.02, -187500.02, 0.00, 0.00, 0.00
156, -22478.79, -1522.62, -21067.72, -187500.02, -187500.02, -187500.02, -187500.02, -187500.02, 0.00, 0.00, 0.00
157, -25178.66, -3909.28, -23524.90, -187500.02, -187500.02, -187500.02, -187500.02, -187500.02, 0.00, 0.00, 0.00
158, -24440.76, -3819.78, -23241.79, -187500.02, -187500.02, -187500.02, -187500.02, -187500.02, 0.00, 0.00, 0.00
159, -21812.29, -1695.89, -20988.38, -187500.02, -187500.02, -187500.02, -187500.02, -187500.02, 0.00, 0.00, 0.00
160, -21966.47, -1188.33, -20678.51, -187500.02, -187500.02, -187500.02, -187500.02, -187500.02, 0.03, -0.09, 0.50
161, -24905.52, -3582.85, -23214.10, -187500.02, -187500.02, -187500.02, -187500.02, -187500.02, 0.00, 0.00, 0.00
162, -24828.36, -4059.93, -23524.07, -187500.02, -187500.02, -187500.02, -187500.02, -187500.02, 0.00, 0.00, 0.00
163, -22243.27, -2100.80, -21397.01, -187500.02, -187500.02, -187500.02, -187500.02, -187500.02, 0.00, 0.00, 0.00
164, -21587.58, -996.62, -20430.25, -187500.02, -187500.02, -187500.02, -187500.02, -187500.02, 0.00, 0.00, 0.00
165, -23800.79, -3397.91, -22758.14, 0.00, -187500.02, -187500.02, -187500.02, -187500.02, 0.00, 0.00, 0.00
166, -21479.22, -1279.35, -20600.44, 0.00, -187500.02, -187500.02, -187500.02, -187500.02, 0.00, 0.00, 0.00
167, -23016.95, -1938.66, -21509.04, 0.00, -187500.02, -187500.02, -187500.02, -187500.02, 0.00, 0.00, 0.00
168, -25386.53, -4173.92, -23759.99, 0.00, -187500.02, -187500.02, -187500.02, -187500.02, 0.00, 0.00, 0.00
169, -24184.68, -3660.75, -23050.32, 0.00, -187500.02, -187500.02, -187500.02, -187500.02, 0.00, 0.00, 0.00
170, -21626.36, -1497.61, -20793.13, 0.00, -187500.02, -187500.02, -187500.02, -187500.02, 0.00, 0.00, 0.00
171, -22401.74, -1495.47, -21016.09, 0.00, -187500.02, -187500.02, -187500.02, -187500.02, 0.00, 0.00, 0.00
172, -25181.14, -3898.10, -23509.27, 0.00, -187500.02, -187500.02, -187500.02, -187500.02, 0.00, 0.00, 0.00
173, -24586.05, -3923.98, -23353.30, 0.00, -187500.02, -187500.02, -187500.02, -187500.02, 0.00, 0.00, 0.00
174, -21958.71, -1837.11, -21129.26, 0.00, -187500.02, -187500.02, -187500.02, -187500.02, 0.00, 0.00, 0.00
175, -21902.16, -1174.67, -20648.23, 0.00, -187500.02, -187500.02, -187500.02, -187500.02, 0.00, 0.00, 0.00
176, -24851.92, -3532.11, -23155.63, 0.00, -187500.02, -187500.02, -187500.02, -187500.02, 0.00, 0.00, 0.00
177, -24930.33, -4130.02, -23597.63, 0.00, -187500.02, -187500.02, -187500.02, -187500.02, 0.00, 0.00, 0.00
178, -22396.54, -2246.22, -21539.17, 0.00, -187500.02, -187500.02, -187500.02, -187500.02, 0.00, 0.00, 0.00
179, -21548.67, -1007.10, -20426.61, 0.00, -187500.02, -187500.02, -187500.02, -187500.02, 0.00, 0.00, 0.00
180, -24405.22, -3080.38, -22715.96, 0.00, -187500.02, -187500.02, -187500.02, -187500.02, 0.00, 0.00, 0.00
181, -25181.01, -4244.82, -23755.79, 0.00, -187500.02, -187500.02, -187500.02, -187500.02, 0.00, 0.00, 0.00
182, -22868.56, -2638.82, -21955.13, 0.00, -187500.02, -187500.02, -187500.02, -187500.02, 0.00, 0.00, 0.00
183, -21338.76, -959.25, -20333.31, 0.00, -187500.02, -187500.02, -187500.02, -187500.02, 0.00, 0.00, 0.00
184, -23861.29, -2600.45, -22217.90, 0.00, -187500.02, -187500.02, -187500.02, -187500.02, 0.00, 0.00, 0.00
185, -25333.73, -4279.60, -23822.85, 0.00, -187500.02, -187500.02, -187500.02, -187500.02, 0.00, 0.00, 0.00
186, -23372.68, -3040.89, -22386.41, 0.00, -187500.02, -187500.02, -187500.02, -187500.02, 0.00, 0.00, 0.00
187, -21312.66, -1063.67, -20401.87, 0.00, -187500.02, -187500.02, -187500.02, -187500.02, 0.00, 0.00, 0.00
188, -23270.67, -2117.98, -21708.97, 0.00, -187500.02, -187500.02, -187500.02, -187500.02, 0.00, 0.00, 0.00
189, -25363.84, -4203.56, -23777.49, 0.00, -187500.02, -187500.02, -187500.02, -187500.02, 0.00, 0.00, 0.00
190, -23871.30, -3425.43, -22793.59, 0.00, -187500.02, -187500.02, -187500.02, -187500.02, 0.00, 0.00, 0.00
191, -21446.72, -1292.96, -20593.64, 0.00, -187500.02, -187500.02, -187500.02, -187500.02, 0.00, 0.00, 0.00
192, -22676.83, -1672.34, -21219.65, 0.00, -187500.02, -187500.02, -187500.02, -187500.02, 0.00, 0.00, 0.00
193, -25266.66, -4014.57, -23614.75, 0.00, -187500.02, -187500.02, -187500.02, -187500.02, 0.00, 0.00, 0.00
194, -24327.77, -3742.40, -23148.38, 0.00, -187500.02, -187500.02, -187500.02, -187500.02, 0.00, 0.00, 0.00
195, -21731.08, -1607.52, -20898.79, 0.00, -187500.02, -187500.02, -187500.02, -187500.02, 0.00, 0.00, 0.00
196, -22138.78, -1304.29, -20807.15, 0.00, -187500.02, -187500.02, -187500.02, -187500.02, 0.00, 0.00, 0.00
197, -25021.73, -3712.71, -23334.82, 0.00, -187500.02, -187500.02, -187500.02, -187500.02, 0.00, 0.00, 0.00
198, -24711.17, -3983.86, -23434.37, 0.00, -187500.02, -187500.02, -187500.02, -187500.02, 0.00, 0.00, 0.00
199, -22109.09, -1968.65, -21268.58, 0.00, -187500.02, -187500.02, -187500.02, -187500.02, 0.00, 0.00, 0.00
200, -21709.56, -1053.66, -20511.26, 0.00, -187500.02, -187500.02, -187500.02, -187500.02, 0.00, 0.00, 0.00
201, -24659.16, -3329.83, -22962.15, 0.00, -187500.02, -187500.02, -187500.02, -187500.02, 0.00, 0.00, 0.00
202, -25036.28, -4179.04, -23664.10, 0.00, -187500.02, -187500.02, -187500.02, -187500.02, 0.00, 0.00, 0.00
203, -22590.04, -2399.59, -21707.16, 0.00, -187500.02, -187500.02, -187500.02, -187500.02, 0.00, 0.00, 0.00
204, -21424.41, -948.41, -20352.45, 0.00, -187500.02, -187500.02, -187500.02, -187500.02, 0.00, 0.00, 0.00
205, -24159.15, -2852.13, -22483.46, 0.00, -187500.02, -187500.02, -187500.02, -187500.02, 0.00, 0.00, 0.00
206, -25245.11, -4257.14, -23780.78, 0.00, -187500.02, -187500.02, -187500.02, -187500.02, 0.00, 0.00, 0.00
207, -23085.80, -2817.08, -22142.93, 0.00, -187500.02, -187500.02, -187500.02, -187500.02, 0.00, 0.00, 0.00
208, -21307.29, -992.71, -20346.99, 0.00, -187500.02, -187500.02, -187500.02, -187500.02, 0.00, 0.00, 0.00
209, -23593.65, -2374.16, -21981.89, 0.00, -187500.02, -187500.02, -187500.02, -187500.02, 0.00, 0.00, 0.00
210, -25355.46, -4250.94, -23809.46, 0.00, -187500.02, -187500.02, -187500.02, -187500.02, 0.00, 0.00, 0.00
211, -23594.63, -3214.05, -22570.05, 0.00, -187500.02, -187500.02, -187500.02, -187500.02, 0.00, 0.00, 0.00
212, -21342.05, -1137.52, -20459.96, 0.00, -187500.02, -187500.02, -187500.02, -187500.02, 0.00, 0.00, 0.00
213, -22998.63, -1904.17, -21477.90, 0.00, -187500.02, -187500.02, -187500.02, -187500.02, 0.00, 0.00, 0.00
214, -25327.34, -4122.87, -23710.01, 0.00, -187500.02, -187500.02, -187500.02, -187500.02, 0.00, 0.00, 0.00
215, -24069.79, -3564.48, -22952.13, 0.00, -187500.02, -187500.02, -187500.02, -187500.02, 0.00, 0.00, 0.00
216, -21542.65, -1407.38, -20706.07, 0.00, -187500.02, -187500.02, -187500.02, -187500.02, 0.00, 0.00, 0.00
217, -22420.12, -1483.53, -21016.43, 0.00, -187500.02, -187500.02, -187500.02, -187500.02, 0.00, 0.00, 0.00
218, -25165.67, -3873.42, -23493.18, 0.00, -187500.02, -187500.02, -187500.02, -187500.02, 0.00, 0.00, 0.00
219, -24506.90, -3853.06, -23283.07, 0.00, -187500.02, -187500.02, -187500.02, -187500.02, 0.00, 0.00, 0.00
220, -21889.91, -1769.95, -21061.20, 0.00, -187500.02, -187500.02, -187500.02, -187500.02, 0.00, 0.00, 0.00
221, -21934.32, -1182.68, -20662.33, 0.00, -187500.02, -187500.02, -187500.02, -187500.02, 0.00, 0.00, 0.00
222, -24878.23, -3551.29, -23181.11, 0.00, -187500.02, -187500.02, -187500.02, -187500.02, 0.00, 0.00, 0.00
223, -24882.16, -4092.45, -23559.34, 0.00, -187500.02, -187500.02, -187500.02, -187500.02, 0.00, 0.00, 0.00
224, -22321.61, -2169.50, -21466.84, 0.00, -187500.02, -187500.02, -187500.02, -187500.02, 0.00, 0.00, 0.00
225, -21572.88, -1002.19, -20431.04, 0.00, -187500.02, -187500.02, -187500.02, -187500.02, 0.00, 0.00, 0.00
226, -24459.78, -3134.14, -22766.41, 0.00, -187500.02, -187500.02, -187500.02, -187500.02, 0.00, 0.00, 0.00
227, -25137.69, -4223.70, -23724.95, 0.00, -187500.02, -187500.02, -187500.02, -187500.02, 0.00, 0.00, 0.00
228, -22800.70, -2585.83, -21896.82, 0.00, -187500.02, -187500.02, -187500.02, -187500.02, 0.00, 0.00, 0.00
229, -21350.21, -952.63, -20333.07, 0.00, -187500.02, -187500.02, -187500.02, -187500.02, 0.00, 0.00, 0.00
230, -23921.46, -2651.23, -22271.08, 0.00, -187500.02, -187500.02, -187500.02, -187500.02, 0.00, 0.00, 0.00
231, -25315.52, -4276.04, -23814.26, 0.00, -187500.02, -187500.02, -187500.02, -187500.02, 0.00, 0.00, 0.00
232, -23315.80, -2997.84, -22334.94, 0.00, -187500.02, -187500.02, -187500.02, -187500.02, 0.00, 0.00, 0.00
233, -21314.80, -1051.14, -20387.34, 0.00, -187500.02, -187500.02, -187500.02, -187500.02, 0.00, 0.00, 0.00
234, -23337.93, -2165.50, -21757.88, 0.00, -187500.02, -187500.02, -187500.02, -187500.02, 0.00, 0.00, 0.00
235, -25358.21, -4203.69, -23775.15, 0.00, -187500.02, -187500.02, -187500.02, -187500.02, 0.00, 0.00, 0.00
236, -23817.10, -3378.78, -22747.79, 0.00, -187500.02, -187500.02, -187500.02, -187500.02, 0.00, 0.00, 0.00
237, -21425.58, -1256.66, -20565.97, 0.00, -187500.02, -187500.02, -187500.02, -187500.02, 0.00, 0.00, 0.00
238, -22748.40, -1719.45, -21275.75, 0.00, -187500.02, -187500.02, -187500.02, -187500.02, 0.00, 0.00, 0.00
239, -25279.53, -4037.46, -23636.50, 0.00, -187500.02, -187500.02, -187500.02, -187500.02, 0.00, 0.00, 0.00
240, -24288.43, -3722.21, -23124.49, 0.00, -187500.02, -187500.02, -187500.02, -187500.02, 0.00, 0.00, 0.00
241, -21700.28, -1568.27, -20868.28, 0.00, -187500.02, -187500.02, -187500.02, -187500.02, 0.00, 0.00, 0.00
242, -22212.07, -1349.91, -20864.10, 0.00, -187500.02, -187500.02, -187500.02, -187500.02, 0.00, 0.00, 0.00
243, -25060.10, -3755.29, -23376.44, 0.00, -187500.02, -187500.02, -187500.02, -187500.02, 0.00, 0.00, 0.00
244, -24682.49, -3971.95, -23416.78, 0.00, -187500.02, -187500.02, -187500.02, -187500.02, 0.00, 0.00, 0.00
245, -22078.14, -1944.87, -21239.95, 0.00, -187500.02, -187500.02, -187500.02, -187500.02, 0.00, 0.00, 0.00
246, -21759.56, -1078.56, -20542.13, 0.00, -187500.02, -187500.02, -187500.02, -187500.02, 0.00, 0.00, 0.00
247, -24695.08, -3363.78, -22995.07, 0.00, -187500.02, -187500.02, -187500.02, -187500.02, 0.00, 0.00, 0.00
248, -25023.11, -4182.03, -23661.80, 0.00, -187500.02, -187500.02, -187500.02, -187500.02, 0.00, 0.00, 0.00
249, -22544.71, -2373.06, -21673.08, 0.00, -187500.02, -187500.02, -187500.02, -187500.02, 0.00, 0.00, 0.00
250, -21459.17, -972.41, -20376.43, 0.00, -187500.02, -187500.02, -187500.02, -187500.02, 0.00, 0.00, 0.00
251, -24224.48, -2919.56, -22547.88, 0.00, -187500.02, -187500.02, -187500.02, -187500.02, 0.00, 0.00, 0.00
252, -25235.25, -4269.61, -23786.84, 0.00, -187500.02, -187500.02, -187500.02, -187500.02, 0.00, 0.00, 0.00
253, -23034.52, -2780.15, -22102.59, 0.00, -187500.02, -187500.02, -187500.02, -187500.02, 0.00, 0.00, 0.00
254, -21312.66, -980.68, -20341.63, 0.00, -187500.02, -187500.02, -187500.02, -187500.02, 0.00, 0.00, 0.00
255, -23669.20, -2438.82, -22048.52, 0.00, -187500.02, -187500.02, -187500.02, -187500.02, 0.00, 0.00, 0.00
0, -25365.03, -4275.93, -23828.61, 0.00, -187500.02, -187500.02, -187500.02, -187500.02, 0.00, 0.00, 0.00
1, -23544.25, -3169.63, -22528.57, 0.00, -187500.02, -187500.02, -187500.02, -187500.02, 0.00, 0.00, 0.00
2, -21332.53, -1108.47, -20441.56, 0.00, -187500.02, -187500.02, -187500.02, -187500.02, 0.00, 0.00, 0.00
3, -23060.63, -1941.29, -21526.88, 0.00, -187500.02, -187500.02, -187500.02, -187500.02, 0.00, 0.00, 0.00
4, -25328.35, -4120.37, -23713.17, 0.00, -187500.02, -187500.02, -187500.02, -187500.02, 0.00, 0.00, 0.00
5, -24017.62, -3513.63, -22904.03, 0.00, -187500.02, -187500.02, -187500.02, -187500.02, 0.00, 0.00, 0.00
6, -21518.78, -1372.02, -20676.70, 0.00, -187500.02, -187500.02, -187500.02, -187500.02, 0.00, 0.00, 0.00
7, -22490.48, -1537.40, -21072.93, 0.00, -187500.02, -187500.02, -187500.02, -187500.02, 0.00, 0.00, 0.00
8, -25198.04, -3924.54, -23533.05, 0.00, -187500.02, -187500.02, -187500.02, -187500.02, 0.00, 0.00, 0.00
9, -24471.25, -3845.77, -23263.79, 0.00, -187500.02, -187500.02, -187500.02, -187500.02, 0.00, 0.00, 0.00
10, -21840.00, -1723.88, -21013.90, 0.00, -187500.02, -187500.02, -187500.02, -187500.02, 0.00, 0.00, 0.00
11, -21988.39, -1212.67, -20697.40, 0.00, -187500.02, -187500.02, -187500.02, -187500.02, 0.00, 0.00, 0.00
12, -24910.77, -3591.70, -23215.62, 0.00, -187500.02, -187500.02, -187500.02, -187500.02, 0.00, 0.00, 0.00
13, -24836.25, -4073.63, -23531.07, 0.00, -187500.02, -187500.02, -187500.02, -187500.02, 0.00, 0.00, 0.00
14, -22272.37, -2126.97, -21422.94, 0.00, -187500.02, -187500.02, -187500.02, -187500.02, 0.00, 0.00, 0.00
15, -21602.38, -1012.13, -20444.11, 0.00, -187500.02, -187500.02, -187500.02, -187500.02, 0.00, 0.00, 0.00
16, -24490.85, -3164.92, -22792.32, 0.00, -187500.02, -187500.02, -187500.02, -187500.02, 0.00, 0.00, 0.00
17, -25107.07, -4207.36, -23701.77, 0.00, -187500.02, -187500.02, -187500.02, -187500.02, 0.00, 0.00, 0.00
18, -22739.08, -2535.16, -21842.39, 0.00, -187500.02, -187500.02, -187500.02, -187500.02, 0.00, 0.00, 0.00
19, -21364.91, -951.16, -20334.25, 0.00, -187500.02, -187500.02, -187500.02, -187500.02, 0.00, 0.00, 0.00
20, -23983.29, -2702.15, -22325.37, 0.00, -187500.02, -187500.02, -187500.02, -187500.02, 0.00, 0.00, 0.00
21, -25301.28, -4274.88, -23808.38, 0.00, -187500.02, -187500.02, -187500.02, -187500.02, 0.00, 0.00, 0.00
22, -23259.02, -2957.83, -22288.35, 0.00, -187500.02, -187500.02, -187500.02, -187500.02, 0.00, 0.00, 0.00
23, -21304.36, -1032.23, -20368.67, 0.00, -187500.02, -187500.02, -187500.02, -187500.02, 0.00, 0.00, 0.00
24, -23404.64, -2218.95, -21814.43, 0.00, -187500.02, -187500.02, -187500.02, -187500.02, 0.00, 0.00, 0.00
25, -25354.52, -4217.06, -23778.99, 0.00, -187500.02, -187500.02, -187500.02, -187500.02, 0.00, 0.00, 0.00
26, -23743.43, -3323.21, -22683.20, 0.00, -187500.02, -187500.02, -187500.02, -187500.02, 0.00, 0.00, 0.00
27, -21399.47, -1219.47, -20528.76, 0.00, -187500.02, -187500.02, -187500.02, -187500.02, 0.00, 0.00, 0.00
28, -22809.51, -1763.42, -21320.23, 0.00, -187500.02, -187500.02, -187500.02, -187500.02, 0.00, 0.00, 0.00
29, -25299.16, -4065.13, -23659.54, 0.00, -187500.02, -187500.02, -187500.02, -187500.02, 0.00, 0.00, 0.00
30, -24233.02, -3679.41, -23081.21, 0.00, -187500.02, -187500.02, -187500.02, -187500.02, 0.00, 0.00, 0.00
31, -21649.43, -1521.33, -20817.72, 0.00, -187500.02, -187500.02, -187500.02, -187500.02, 0.00, 0.00, 0.00
32, -22260.19, -1382.43, -20897.03, 0.00, -187500.02, -187500.02, -187500.02, -187500.02, 0.00, 0.00, 0.00
33, -25080.09, -3784.66, -23398.56, 0.00, -187500.02, -187500.02, -187500.02, -187500.02, 0.00, 0.00, 0.00
34, -24639.87, -3952.15, -23388.13, 0.00, -187500.02, -187500.02, -187500.02, -187500.02, 0.00, 0.00, 0.00
35, -22006.79, -1883.47, -21177.32, 0.00, -187500.02, -187500.02, -187500.02, -187500.02, 0.00, 0.00, 0.00
36, -21788.12, -1098.50, -20562.60, 0.00, -187500.02, -187500.02, -187500.02, -187500.02, 0.00, 0.00, 0.00
